Data from solis365c_3750mA_white_FLMS192441__1__16-09-53-863.txt Node

Date: Tue Sep 13 16:09:53 CEST 2022
User: Spectrometer
Spectrometer: FLMS19244
Trigger mode: 0
Integration Time (sec): 1.000000E-1
Scans to average: 1
Electric dark correction enabled: true
Nonlinearity correction enabled: false
Boxcar width: 0
XAxis mode: Wavelengths
Number of Pixels in Spectrum: 2048
>>>>>Begin Spectral Data<<<<<
338.974	-55.73
339.356	-55.73
339.738	-55.73
340.12	-76.05
340.502	-76.05
340.883	-45.57
341.265	-65.89
341.647	-114.15
342.029	-70.97
342.41	-70.97
342.792	-81.13
343.173	-96.37
343.555	-2.38
343.936	-22.7
344.318	48.42
344.699	28.1
345.08	91.61
345.462	28.1
345.843	124.63
346.224	94.15
346.605	155.11
346.986	114.47
347.368	144.95
347.749	106.85
348.13	213.54
348.51	208.46
348.891	177.97
349.272	193.22
349.653	198.3
350.034	190.67
350.414	223.7
350.795	223.7
351.176	205.92
351.556	254.18
351.937	266.88
352.317	297.36
352.698	261.8
353.078	320.23
353.459	348.17
353.839	279.58
354.219	416.75
354.599	322.77
354.98	304.98
355.36	279.58
355.74	340.55
356.12	348.17
356.5	292.28
356.88	307.52
357.26	279.58
357.64	340.55
358.02	269.42
358.399	363.41
358.779	310.06
359.159	325.31
359.539	304.98
359.918	238.94
360.298	332.93
360.677	289.74
361.057	348.17
361.436	246.56
361.816	330.39
362.195	312.61
362.574	284.66
362.954	274.5
363.333	203.38
363.712	386.27
364.091	261.8
364.47	312.61
364.849	221.16
365.228	297.36
365.607	277.04
365.986	251.64
366.365	277.04
366.744	241.48
367.123	279.58
367.501	315.15
367.88	307.52
368.259	218.62
368.637	307.52
369.016	233.86
369.394	287.2
369.773	254.18
370.151	330.39
370.53	264.34
370.908	292.28
371.286	294.82
371.665	317.69
372.043	299.9
372.421	327.85
372.799	297.36
373.177	368.49
373.555	386.27
373.933	406.59
374.311	462.48
374.689	472.64
375.067	518.36
375.445	525.98
375.823	505.66
376.2	559.01
376.578	614.89
376.956	658.07
377.333	617.43
377.711	703.8
378.088	688.56
378.466	772.38
378.843	810.49
379.22	805.41
379.598	863.83
379.975	840.97
380.352	912.1
380.73	932.42
381.107	950.2
381.484	947.66
381.861	973.06
382.238	1044.19
382.615	1110.23
382.992	1260.11
383.369	1437.92
383.746	1399.82
384.122	1409.98
384.499	1539.53
384.876	1623.36
385.252	1570.01
385.629	1648.76
386.006	1648.76
386.382	1752.91
386.759	1801.17
387.135	1859.6
387.512	1808.79
387.888	1793.55
388.264	1844.35
388.641	1849.44
389.017	1953.58
389.393	1907.86
389.769	1910.4
390.145	1854.52
390.521	1928.18
390.897	1996.77
391.273	1923.1
391.649	1907.86
392.025	1900.24
392.401	1841.81
392.777	1844.35
393.152	1641.14
393.528	1816.41
393.904	1730.04
394.279	1676.7
394.655	1824.03
395.03	1651.3
395.406	1653.84
395.781	1646.22
396.157	1618.28
396.532	1595.41
396.907	1478.56
397.283	1476.02
397.658	1470.94
398.033	1346.47
398.408	1476.02
398.783	1326.15
399.158	1300.75
399.533	1364.25
399.908	1255.02
400.283	1280.43
400.658	1173.74
401.033	1247.4
401.407	1199.14
401.782	1158.5
402.157	1191.52
402.531	1168.66
402.906	1074.67
403.28	1110.23
403.655	1100.07
404.029	1026.41
404.404	1079.75
404.778	927.34
405.153	914.64
405.527	1041.65
405.901	896.85
406.275	950.2
406.649	879.07
407.023	942.58
407.397	985.76
407.771	858.75
408.145	899.39
408.519	807.95
408.893	927.34
409.267	840.97
409.641	818.11
410.015	873.99
410.388	782.54
410.762	828.27
411.136	734.28
411.509	777.46
411.883	780
412.256	713.96
412.63	686.02
413.003	726.66
413.376	736.82
413.75	774.92
414.123	614.89
414.496	680.94
414.869	686.02
415.242	660.61
415.615	650.45
415.988	594.57
416.361	617.43
416.734	711.42
417.107	622.51
417.48	617.43
417.853	655.53
418.226	586.95
418.598	734.28
418.971	604.73
419.344	586.95
419.716	619.97
420.089	607.27
420.461	625.05
420.834	686.02
421.206	617.43
421.578	602.19
421.951	581.87
422.323	584.41
422.695	559.01
423.067	561.55
423.439	569.17
423.812	543.76
424.184	574.25
424.556	520.9
424.928	533.6
425.299	571.71
425.671	543.76
426.043	569.17
426.415	518.36
426.787	528.52
427.158	492.96
427.53	594.57
427.902	525.98
428.273	495.5
428.645	515.82
429.016	498.04
429.387	381.19
429.759	500.58
430.13	459.94
430.501	475.18
430.873	424.37
431.244	442.16
431.615	437.08
431.986	467.56
432.357	439.62
432.728	637.75
433.099	482.8
433.47	480.26
433.841	510.74
434.212	477.72
434.583	475.18
434.953	426.91
435.324	477.72
435.695	426.91
436.065	429.46
436.436	454.86
436.806	404.05
437.177	439.62
437.547	393.89
437.918	437.08
438.288	383.73
438.658	444.7
439.028	416.75
439.399	449.78
439.769	429.46
440.139	419.29
440.509	358.33
440.879	409.13
441.249	437.08
441.619	421.83
441.989	498.04
442.359	437.08
442.728	355.79
443.098	322.77
443.468	391.35
443.838	409.13
444.207	414.21
444.577	368.49
444.946	439.62
445.316	401.51
445.685	340.55
446.055	358.33
446.424	376.11
446.793	340.55
447.163	350.71
447.532	457.4
447.901	416.75
448.27	343.09
448.639	350.71
449.008	391.35
449.377	353.25
449.746	419.29
450.115	434.54
450.484	350.71
450.853	376.11
451.221	459.94
451.59	396.43
451.959	393.89
452.327	371.03
452.696	378.65
453.065	371.03
453.433	373.57
453.801	348.17
454.17	360.87
454.538	376.11
454.907	310.06
455.275	348.17
455.643	381.19
456.011	365.95
456.379	404.05
456.747	345.63
457.115	345.63
457.483	320.23
457.851	348.17
458.219	383.73
458.587	271.96
458.955	393.89
459.323	335.47
459.69	376.11
460.058	358.33
460.426	378.65
460.793	353.25
461.161	302.44
461.528	312.61
461.896	360.87
462.263	320.23
462.631	338.01
462.998	307.52
463.365	388.81
463.732	335.47
464.1	274.5
464.467	315.15
464.834	416.75
465.201	340.55
465.568	271.96
465.935	343.09
466.302	348.17
466.669	343.09
467.035	335.47
467.402	327.85
467.769	368.49
468.136	355.79
468.502	383.73
468.869	439.62
469.235	376.11
469.602	355.79
469.968	332.93
470.335	383.73
470.701	376.11
471.067	358.33
471.434	419.29
471.8	302.44
472.166	393.89
472.532	292.28
472.898	340.55
473.264	345.63
473.63	317.69
473.996	358.33
474.362	358.33
474.728	360.87
475.094	358.33
475.46	401.51
475.825	355.79
476.191	350.71
476.557	335.47
476.922	371.03
477.288	371.03
477.653	378.65
478.019	406.59
478.384	297.36
478.749	289.74
479.115	406.59
479.48	345.63
479.845	338.01
480.21	345.63
480.576	355.79
480.941	343.09
481.306	277.04
481.671	426.91
482.036	297.36
482.401	332.93
482.765	307.52
483.13	371.03
483.495	348.17
483.86	376.11
484.224	317.69
484.589	315.15
484.954	315.15
485.318	320.23
485.683	261.8
486.047	335.47
486.412	327.85
486.776	338.01
487.14	401.51
487.504	424.37
487.869	388.81
488.233	299.9
488.597	381.19
488.961	355.79
489.325	383.73
489.689	360.87
490.053	396.43
490.417	386.27
490.781	343.09
491.145	358.33
491.508	294.82
491.872	393.89
492.236	327.85
492.599	343.09
492.963	289.74
493.327	327.85
493.69	439.62
494.054	330.39
494.417	429.46
494.78	376.11
495.144	335.47
495.507	396.43
495.87	330.39
496.233	360.87
496.596	332.93
496.959	302.44
497.322	363.41
497.685	381.19
498.048	411.67
498.411	348.17
498.774	332.93
499.137	332.93
499.5	259.26
499.862	330.39
500.225	350.71
500.588	409.13
500.95	332.93
501.313	330.39
501.675	406.59
502.038	350.71
502.4	411.67
502.762	383.73
503.125	416.75
503.487	343.09
503.849	426.91
504.211	355.79
504.574	409.13
504.936	343.09
505.298	363.41
505.66	373.57
506.022	353.25
506.383	355.79
506.745	332.93
507.107	282.12
507.469	348.17
507.831	343.09
508.192	292.28
508.554	388.81
508.915	292.28
509.277	269.42
509.638	322.77
510	312.61
510.361	360.87
510.723	338.01
511.084	355.79
511.445	332.93
511.806	307.52
512.167	340.55
512.529	294.82
512.89	409.13
513.251	378.65
513.612	304.98
513.972	330.39
514.333	297.36
514.694	371.03
515.055	350.71
515.416	322.77
515.776	310.06
516.137	320.23
516.498	411.67
516.858	411.67
517.219	353.25
517.579	355.79
517.94	381.19
518.3	269.42
518.66	304.98
519.021	348.17
519.381	302.44
519.741	310.06
520.101	325.31
520.461	338.01
520.821	411.67
521.181	266.88
521.541	289.74
521.901	378.65
522.261	381.19
522.621	335.47
522.981	371.03
523.34	365.95
523.7	391.35
524.06	320.23
524.419	353.25
524.779	320.23
525.138	353.25
525.498	355.79
525.857	371.03
526.216	332.93
526.576	289.74
526.935	398.97
527.294	343.09
527.653	284.66
528.013	353.25
528.372	274.5
528.731	310.06
529.09	373.57
529.449	338.01
529.807	388.81
530.166	378.65
530.525	294.82
530.884	327.85
531.243	386.27
531.601	345.63
531.96	289.74
532.318	307.52
532.677	350.71
533.035	302.44
533.394	398.97
533.752	350.71
534.111	330.39
534.469	345.63
534.827	398.97
535.185	360.87
535.543	304.98
535.902	264.34
536.26	348.17
536.618	406.59
536.976	350.71
537.334	271.96
537.691	358.33
538.049	416.75
538.407	383.73
538.765	350.71
539.122	332.93
539.48	340.55
539.838	378.65
540.195	343.09
540.553	325.31
540.91	393.89
541.268	360.87
541.625	411.67
541.982	353.25
542.34	322.77
542.697	378.65
543.054	350.71
543.411	350.71
543.768	322.77
544.125	317.69
544.482	320.23
544.839	325.31
545.196	406.59
545.553	343.09
545.91	355.79
546.267	350.71
546.623	388.81
546.98	378.65
547.337	404.05
547.693	297.36
548.05	360.87
548.406	355.79
548.763	386.27
549.119	332.93
549.475	294.82
549.832	320.23
550.188	322.77
550.544	327.85
550.9	353.25
551.256	393.89
551.612	345.63
551.968	398.97
552.324	320.23
552.68	287.2
553.036	373.57
553.392	282.12
553.748	350.71
554.104	294.82
554.459	294.82
554.815	332.93
555.17	343.09
555.526	340.55
555.882	388.81
556.237	338.01
556.592	373.57
556.948	353.25
557.303	421.83
557.658	355.79
558.014	289.74
558.369	373.57
558.724	353.25
559.079	360.87
559.434	251.64
559.789	325.31
560.144	312.61
560.499	363.41
560.854	294.82
561.209	363.41
561.563	338.01
561.918	327.85
562.273	327.85
562.627	353.25
562.982	348.17
563.336	365.95
563.691	345.63
564.045	274.5
564.4	383.73
564.754	274.5
565.108	317.69
565.463	277.04
565.817	312.61
566.171	292.28
566.525	358.33
566.879	340.55
567.233	320.23
567.587	277.04
567.941	353.25
568.295	330.39
568.649	320.23
569.002	350.71
569.356	264.34
569.71	241.48
570.064	274.5
570.417	365.95
570.771	320.23
571.124	363.41
571.478	317.69
571.831	271.96
572.184	307.52
572.538	340.55
572.891	292.28
573.244	345.63
573.597	327.85
573.95	355.79
574.304	360.87
574.657	383.73
575.01	404.05
575.362	411.67
575.715	332.93
576.068	310.06
576.421	327.85
576.774	373.57
577.126	294.82
577.479	292.28
577.832	396.43
578.184	340.55
578.537	302.44
578.889	348.17
579.242	332.93
579.594	373.57
579.946	355.79
580.299	317.69
580.651	360.87
581.003	353.25
581.355	348.17
581.707	398.97
582.059	274.5
582.411	315.15
582.763	327.85
583.115	340.55
583.467	350.71
583.819	282.12
584.171	277.04
584.522	330.39
584.874	376.11
585.226	335.47
585.577	317.69
585.929	335.47
586.28	320.23
586.632	282.12
586.983	271.96
587.334	350.71
587.686	343.09
588.037	345.63
588.388	363.41
588.739	388.81
589.09	299.9
589.441	287.2
589.792	358.33
590.143	404.05
590.494	330.39
590.845	294.82
591.196	386.27
591.547	396.43
591.897	338.01
592.248	208.46
592.599	297.36
592.949	271.96
593.3	297.36
593.65	371.03
594.001	294.82
594.351	304.98
594.702	297.36
595.052	320.23
595.402	310.06
595.752	317.69
596.102	261.8
596.453	345.63
596.803	254.18
597.153	365.95
597.503	279.58
597.853	261.8
598.202	338.01
598.552	353.25
598.902	348.17
599.252	304.98
599.601	363.41
599.951	315.15
600.301	332.93
600.65	386.27
601	368.49
601.349	419.29
601.699	287.2
602.048	363.41
602.397	317.69
602.747	325.31
603.096	386.27
603.445	249.1
603.794	353.25
604.143	365.95
604.492	322.77
604.841	338.01
605.19	325.31
605.539	256.72
605.888	332.93
606.237	261.8
606.585	386.27
606.934	292.28
607.283	330.39
607.631	343.09
607.98	277.04
608.328	297.36
608.677	343.09
609.025	406.59
609.374	363.41
609.722	294.82
610.07	350.71
610.418	292.28
610.767	409.13
611.115	287.2
611.463	266.88
611.811	320.23
612.159	322.77
612.507	325.31
612.855	310.06
613.202	294.82
613.55	294.82
613.898	317.69
614.246	282.12
614.593	310.06
614.941	312.61
615.288	256.72
615.636	325.31
615.983	327.85
616.331	340.55
616.678	332.93
617.026	294.82
617.373	327.85
617.72	345.63
618.067	310.06
618.414	322.77
618.761	287.2
619.108	355.79
619.455	297.36
619.802	325.31
620.149	332.93
620.496	310.06
620.843	287.2
621.19	289.74
621.536	348.17
621.883	266.88
622.23	325.31
622.576	325.31
622.923	345.63
623.269	335.47
623.616	325.31
623.962	338.01
624.308	307.52
624.655	353.25
625.001	348.17
625.347	327.85
625.693	244.02
626.039	325.31
626.385	383.73
626.731	355.79
627.077	284.66
627.423	322.77
627.769	256.72
628.115	317.69
628.46	292.28
628.806	282.12
629.152	307.52
629.497	330.39
629.843	335.47
630.189	251.64
630.534	363.41
630.879	279.58
631.225	330.39
631.57	302.44
631.915	312.61
632.261	317.69
632.606	340.55
632.951	320.23
633.296	287.2
633.641	343.09
633.986	315.15
634.331	360.87
634.676	340.55
635.021	259.26
635.365	353.25
635.71	312.61
636.055	310.06
636.4	274.5
636.744	371.03
637.089	322.77
637.433	327.85
637.778	335.47
638.122	292.28
638.466	335.47
638.811	343.09
639.155	299.9
639.499	353.25
639.843	297.36
640.188	343.09
640.532	292.28
640.876	279.58
641.22	312.61
641.564	345.63
641.908	297.36
642.251	292.28
642.595	294.82
642.939	271.96
643.283	322.77
643.626	360.87
643.97	317.69
644.313	282.12
644.657	404.05
645	312.61
645.344	274.5
645.687	310.06
646.03	332.93
646.374	297.36
646.717	332.93
647.06	307.52
647.403	345.63
647.746	292.28
648.089	310.06
648.432	327.85
648.775	330.39
649.118	388.81
649.461	287.2
649.804	350.71
650.146	330.39
650.489	254.18
650.832	330.39
651.174	416.75
651.517	386.27
651.859	330.39
652.202	343.09
652.544	325.31
652.887	317.69
653.229	251.64
653.571	310.06
653.913	332.93
654.256	302.44
654.598	284.66
654.94	332.93
655.282	279.58
655.624	348.17
655.966	282.12
656.308	322.77
656.649	307.52
656.991	299.9
657.333	310.06
657.675	266.88
658.016	322.77
658.358	360.87
658.699	386.27
659.041	279.58
659.382	320.23
659.724	368.49
660.065	238.94
660.406	266.88
660.748	381.19
661.089	325.31
661.43	254.18
661.771	330.39
662.112	325.31
662.453	330.39
662.794	312.61
663.135	282.12
663.476	310.06
663.817	261.8
664.157	279.58
664.498	343.09
664.839	282.12
665.179	259.26
665.52	312.61
665.86	279.58
666.201	282.12
666.541	312.61
666.882	330.39
667.222	404.05
667.562	320.23
667.903	317.69
668.243	287.2
668.583	304.98
668.923	343.09
669.263	371.03
669.603	340.55
669.943	304.98
670.283	282.12
670.623	307.52
670.963	340.55
671.302	269.42
671.642	241.48
671.982	251.64
672.321	360.87
672.661	360.87
673	330.39
673.34	302.44
673.679	271.96
674.019	279.58
674.358	259.26
674.697	330.39
675.036	302.44
675.376	317.69
675.715	274.5
676.054	284.66
676.393	294.82
676.732	338.01
677.071	335.47
677.41	287.2
677.748	373.57
678.087	348.17
678.426	304.98
678.765	292.28
679.103	355.79
679.442	343.09
679.78	320.23
680.119	312.61
680.457	302.44
680.796	292.28
681.134	332.93
681.472	259.26
681.811	282.12
682.149	312.61
682.487	322.77
682.825	277.04
683.163	335.47
683.501	287.2
683.839	373.57
684.177	373.57
684.515	218.62
684.853	251.64
685.191	376.11
685.528	312.61
685.866	322.77
686.204	289.74
686.541	332.93
686.879	368.49
687.216	353.25
687.554	338.01
687.891	299.9
688.228	302.44
688.566	350.71
688.903	343.09
689.24	401.51
689.577	330.39
689.914	343.09
690.251	376.11
690.588	368.49
690.925	325.31
691.262	325.31
691.599	327.85
691.936	307.52
692.273	259.26
692.609	348.17
692.946	312.61
693.282	350.71
693.619	274.5
693.956	299.9
694.292	335.47
694.628	373.57
694.965	335.47
695.301	277.04
695.637	289.74
695.974	297.36
696.31	200.84
696.646	343.09
696.982	289.74
697.318	299.9
697.654	325.31
697.99	327.85
698.326	307.52
698.662	320.23
698.997	320.23
699.333	363.41
699.669	345.63
700.004	259.26
700.34	365.95
700.675	299.9
701.011	261.8
701.346	322.77
701.682	294.82
702.017	317.69
702.352	345.63
702.688	271.96
703.023	373.57
703.358	292.28
703.693	325.31
704.028	322.77
704.363	256.72
704.698	292.28
705.033	327.85
705.368	307.52
705.703	348.17
706.037	284.66
706.372	297.36
706.707	304.98
707.041	335.47
707.376	360.87
707.71	246.56
708.045	335.47
708.379	312.61
708.714	277.04
709.048	294.82
709.382	335.47
709.716	307.52
710.051	348.17
710.385	365.95
710.719	287.2
711.053	348.17
711.387	208.46
711.721	274.5
712.055	348.17
712.388	355.79
712.722	330.39
713.056	274.5
713.39	322.77
713.723	371.03
714.057	363.41
714.39	289.74
714.724	338.01
715.057	292.28
715.391	360.87
715.724	332.93
716.057	299.9
716.39	330.39
716.724	307.52
717.057	269.42
717.39	292.28
717.723	299.9
718.056	310.06
718.389	330.39
718.722	274.5
719.055	332.93
719.387	330.39
719.72	294.82
720.053	315.15
720.385	332.93
720.718	297.36
721.051	350.71
721.383	358.33
721.716	271.96
722.048	338.01
722.38	310.06
722.713	310.06
723.045	284.66
723.377	261.8
723.709	310.06
724.041	294.82
724.373	330.39
724.705	343.09
725.037	307.52
725.369	310.06
725.701	292.28
726.033	315.15
726.365	271.96
726.696	330.39
727.028	350.71
727.36	348.17
727.691	343.09
728.023	292.28
728.354	244.02
728.686	355.79
729.017	345.63
729.348	307.52
729.68	368.49
730.011	322.77
730.342	322.77
730.673	312.61
731.004	299.9
731.335	228.78
731.666	322.77
731.997	383.73
732.328	282.12
732.659	310.06
732.99	259.26
733.32	393.89
733.651	241.48
733.982	302.44
734.312	264.34
734.643	284.66
734.973	393.89
735.304	332.93
735.634	343.09
735.965	358.33
736.295	307.52
736.625	312.61
736.955	292.28
737.285	317.69
737.616	355.79
737.946	386.27
738.276	373.57
738.605	312.61
738.935	432
739.265	353.25
739.595	271.96
739.925	322.77
740.254	312.61
740.584	320.23
740.914	363.41
741.243	312.61
741.573	327.85
741.902	327.85
742.232	249.1
742.561	317.69
742.89	317.69
743.22	274.5
743.549	294.82
743.878	289.74
744.207	304.98
744.536	310.06
744.865	378.65
745.194	358.33
745.523	264.34
745.852	236.4
746.181	335.47
746.509	310.06
746.838	299.9
747.167	271.96
747.495	299.9
747.824	282.12
748.152	310.06
748.481	279.58
748.809	348.17
749.138	294.82
749.466	271.96
749.794	310.06
750.122	381.19
750.451	365.95
750.779	292.28
751.107	307.52
751.435	289.74
751.763	284.66
752.091	307.52
752.419	353.25
752.746	325.31
753.074	330.39
753.402	282.12
753.73	284.66
754.057	297.36
754.385	348.17
754.712	310.06
755.04	271.96
755.367	312.61
755.695	310.06
756.022	284.66
756.349	304.98
756.676	302.44
757.004	348.17
757.331	264.34
757.658	307.52
757.985	322.77
758.312	266.88
758.639	365.95
758.966	327.85
759.292	310.06
759.619	332.93
759.946	279.58
760.273	368.49
760.599	279.58
760.926	340.55
761.252	338.01
761.579	274.5
761.905	274.5
762.232	335.47
762.558	244.02
762.884	310.06
763.21	307.52
763.537	348.17
763.863	292.28
764.189	292.28
764.515	279.58
764.841	355.79
765.167	294.82
765.493	302.44
765.818	282.12
766.144	304.98
766.47	266.88
766.796	287.2
767.121	317.69
767.447	307.52
767.772	363.41
768.098	279.58
768.423	269.42
768.749	345.63
769.074	376.11
769.399	353.25
769.725	350.71
770.05	365.95
770.375	261.8
770.7	271.96
771.025	322.77
771.35	345.63
771.675	327.85
772	348.17
772.325	378.65
772.649	393.89
772.974	266.88
773.299	299.9
773.624	294.82
773.948	284.66
774.273	271.96
774.597	350.71
774.922	325.31
775.246	368.49
775.57	307.52
