Data from solis365c_3750mA_gray_FLMS192441__3__16-13-09-351.txt Node

Date: Tue Sep 13 16:13:09 CEST 2022
User: Spectrometer
Spectrometer: FLMS19244
Trigger mode: 0
Integration Time (sec): 1.000000E-1
Scans to average: 1
Electric dark correction enabled: true
Nonlinearity correction enabled: false
Boxcar width: 0
XAxis mode: Wavelengths
Number of Pixels in Spectrum: 2048
>>>>>Begin Spectral Data<<<<<
338.974	-14.76
339.356	-14.76
339.738	-14.76
340.12	-73.19
340.502	-93.51
340.883	-73.19
341.265	-98.59
341.647	-88.43
342.029	-57.95
342.41	-57.95
342.792	-68.11
343.173	-90.97
343.555	-45.25
343.936	0.48
344.318	41.12
344.699	41.12
345.08	97
345.462	74.14
345.843	107.17
346.224	147.81
346.605	71.6
346.986	79.22
347.368	168.13
347.749	150.35
348.13	160.51
348.51	178.29
348.891	251.96
349.272	241.8
349.653	257.04
350.034	267.2
350.414	318
350.795	282.44
351.176	272.28
351.556	300.22
351.937	295.14
352.317	279.9
352.698	323.08
353.078	287.52
353.459	277.36
353.839	290.06
354.219	246.88
354.599	302.76
354.98	351.03
355.36	351.03
355.74	312.92
356.12	305.3
356.5	272.28
356.88	312.92
357.26	262.12
357.64	373.89
358.02	305.3
358.399	318
358.779	277.36
359.159	358.65
359.539	338.32
359.918	244.34
360.298	305.3
360.677	320.54
361.057	310.38
361.436	320.54
361.816	284.98
362.195	290.06
362.574	262.12
362.954	307.84
363.333	343.41
363.712	284.98
364.091	272.28
364.47	358.65
364.849	300.22
365.228	282.44
365.607	305.3
365.986	272.28
366.365	264.66
366.744	287.52
367.123	287.52
367.501	279.9
367.88	221.47
368.259	218.93
368.637	320.54
369.016	254.5
369.394	287.52
369.773	338.32
370.151	318
370.53	292.6
370.908	279.9
371.286	300.22
371.665	259.58
372.043	315.46
372.421	318
372.799	297.68
373.177	358.65
373.555	241.8
373.933	290.06
374.311	249.42
374.689	295.14
375.067	310.38
375.445	338.32
375.823	358.65
376.2	389.13
376.578	295.14
376.956	333.24
377.333	345.95
377.711	457.71
378.088	406.91
378.466	422.15
378.843	490.74
379.22	376.43
379.598	427.23
379.975	452.63
380.352	450.09
380.73	478.04
381.107	467.88
381.484	432.31
381.861	470.42
382.238	437.39
382.615	488.2
382.992	427.23
383.369	556.78
383.746	549.16
384.122	544.08
384.499	630.45
384.876	503.44
385.252	592.35
385.629	594.89
386.006	587.27
386.382	671.09
386.759	704.12
387.135	666.01
387.512	556.78
387.888	612.67
388.264	599.97
388.641	686.33
389.017	617.75
389.393	724.44
389.769	671.09
390.145	655.85
390.521	648.23
390.897	622.83
391.273	625.37
391.649	732.06
392.025	678.71
392.401	622.83
392.777	610.13
393.152	632.99
393.528	640.61
393.904	602.51
394.279	645.69
394.655	635.53
395.03	630.45
395.406	564.4
395.781	630.45
396.157	577.11
396.532	561.86
396.907	696.5
397.283	551.7
397.658	605.05
398.033	541.54
398.408	472.96
398.783	602.51
399.158	594.89
399.533	546.62
399.908	539
400.283	500.9
400.658	508.52
401.033	536.46
401.407	541.54
401.782	472.96
402.157	462.8
402.531	447.55
402.906	419.61
403.28	533.92
403.655	536.46
404.029	460.26
404.404	457.71
404.778	478.04
405.153	511.06
405.527	480.58
405.901	396.75
406.275	406.91
406.649	356.11
407.023	498.36
407.397	478.04
407.771	462.8
408.145	411.99
408.519	457.71
408.893	447.55
409.267	376.43
409.641	394.21
410.015	419.61
410.388	503.44
410.762	432.31
411.136	376.43
411.509	373.89
411.883	376.43
412.256	424.69
412.63	389.13
413.003	315.46
413.376	394.21
413.75	442.47
414.123	323.08
414.496	422.15
414.869	422.15
415.242	424.69
415.615	404.37
415.988	338.32
416.361	399.29
416.734	343.41
417.107	368.81
417.48	378.97
417.853	457.71
418.226	381.51
418.598	419.61
418.971	351.03
419.344	401.83
419.716	452.63
420.089	378.97
420.461	366.27
420.834	358.65
421.206	394.21
421.578	363.73
421.951	386.59
422.323	366.27
422.695	401.83
423.067	384.05
423.439	353.57
423.812	432.31
424.184	335.78
424.556	409.45
424.928	333.24
425.299	343.41
425.671	373.89
426.043	315.46
426.415	447.55
426.787	333.24
427.158	389.13
427.53	353.57
427.902	366.27
428.273	356.11
428.645	368.81
429.016	345.95
429.387	348.49
429.759	335.78
430.13	330.7
430.501	427.23
430.873	310.38
431.244	315.46
431.615	406.91
431.986	373.89
432.357	244.34
432.728	511.06
433.099	351.03
433.47	396.75
433.841	328.16
434.212	274.82
434.583	345.95
434.953	394.21
435.324	351.03
435.695	447.55
436.065	386.59
436.436	422.15
436.806	358.65
437.177	312.92
437.547	371.35
437.918	371.35
438.288	358.65
438.658	330.7
439.028	368.81
439.399	297.68
439.769	302.76
440.139	371.35
440.509	384.05
440.879	320.54
441.249	340.87
441.619	414.53
441.989	323.08
442.359	338.32
442.728	333.24
443.098	267.2
443.468	358.65
443.838	373.89
444.207	345.95
444.577	404.37
444.946	249.42
445.316	315.46
445.685	353.57
446.055	284.98
446.424	348.49
446.793	414.53
447.163	335.78
447.532	302.76
447.901	300.22
448.27	325.62
448.639	277.36
449.008	310.38
449.377	323.08
449.746	353.57
450.115	279.9
450.484	315.46
450.853	312.92
451.221	318
451.59	373.89
451.959	384.05
452.327	330.7
452.696	277.36
453.065	330.7
453.433	292.6
453.801	323.08
454.17	470.42
454.538	269.74
454.907	292.6
455.275	282.44
455.643	338.32
456.011	391.67
456.379	282.44
456.747	378.97
457.115	302.76
457.483	335.78
457.851	348.49
458.219	333.24
458.587	345.95
458.955	333.24
459.323	315.46
459.69	335.78
460.058	353.57
460.426	325.62
460.793	348.49
461.161	320.54
461.528	290.06
461.896	389.13
462.263	345.95
462.631	351.03
462.998	282.44
463.365	450.09
463.732	345.95
464.1	310.38
464.467	343.41
464.834	302.76
465.201	361.19
465.568	315.46
465.935	262.12
466.302	373.89
466.669	343.41
467.035	267.2
467.402	335.78
467.769	323.08
468.136	333.24
468.502	363.73
468.869	320.54
469.235	340.87
469.602	358.65
469.968	323.08
470.335	368.81
470.701	353.57
471.067	297.68
471.434	330.7
471.8	277.36
472.166	330.7
472.532	348.49
472.898	366.27
473.264	241.8
473.63	315.46
473.996	292.6
474.362	269.74
474.728	366.27
475.094	358.65
475.46	284.98
475.825	292.6
476.191	429.77
476.557	284.98
476.922	391.67
477.288	330.7
477.653	338.32
478.019	411.99
478.384	325.62
478.749	328.16
479.115	307.84
479.48	366.27
479.845	328.16
480.21	315.46
480.576	305.3
480.941	371.35
481.306	381.51
481.671	320.54
482.036	366.27
482.401	269.74
482.765	333.24
483.13	358.65
483.495	348.49
483.86	325.62
484.224	333.24
484.589	343.41
484.954	290.06
485.318	345.95
485.683	300.22
486.047	323.08
486.412	348.49
486.776	373.89
487.14	335.78
487.504	312.92
487.869	282.44
488.233	320.54
488.597	363.73
488.961	345.95
489.325	348.49
489.689	389.13
490.053	328.16
490.417	343.41
490.781	371.35
491.145	330.7
491.508	305.3
491.872	345.95
492.236	318
492.599	389.13
492.963	328.16
493.327	406.91
493.69	381.51
494.054	330.7
494.417	300.22
494.78	361.19
495.144	356.11
495.507	348.49
495.87	323.08
496.233	358.65
496.596	333.24
496.959	335.78
497.322	376.43
497.685	368.81
498.048	310.38
498.411	389.13
498.774	376.43
499.137	335.78
499.5	305.3
499.862	348.49
500.225	386.59
500.588	269.74
500.95	361.19
501.313	279.9
501.675	264.66
502.038	356.11
502.4	399.29
502.762	282.44
503.125	318
503.487	366.27
503.849	371.35
504.211	340.87
504.574	267.2
504.936	274.82
505.298	381.51
505.66	307.84
506.022	338.32
506.383	340.87
506.745	310.38
507.107	307.84
507.469	300.22
507.831	330.7
508.192	333.24
508.554	328.16
508.915	376.43
509.277	307.84
509.638	328.16
510	358.65
510.361	295.14
510.723	305.3
511.084	381.51
511.445	269.74
511.806	320.54
512.167	345.95
512.529	310.38
512.89	318
513.251	414.53
513.612	282.44
513.972	320.54
514.333	404.37
514.694	325.62
515.055	312.92
515.416	414.53
515.776	312.92
516.137	307.84
516.498	376.43
516.858	368.81
517.219	358.65
517.579	323.08
517.94	351.03
518.3	320.54
518.66	340.87
519.021	325.62
519.381	358.65
519.741	338.32
520.101	328.16
520.461	272.28
520.821	274.82
521.181	345.95
521.541	269.74
521.901	284.98
522.261	302.76
522.621	315.46
522.981	361.19
523.34	343.41
523.7	325.62
524.06	348.49
524.419	305.3
524.779	297.68
525.138	302.76
525.498	305.3
525.857	345.95
526.216	325.62
526.576	310.38
526.935	409.45
527.294	406.91
527.653	356.11
528.013	361.19
528.372	439.93
528.731	361.19
529.09	361.19
529.449	320.54
529.807	353.57
530.166	406.91
530.525	399.29
530.884	318
531.243	312.92
531.601	353.57
531.96	345.95
532.318	315.46
532.677	361.19
533.035	338.32
533.394	282.44
533.752	340.87
534.111	406.91
534.469	338.32
534.827	401.83
535.185	363.73
535.543	368.81
535.902	335.78
536.26	310.38
536.618	389.13
536.976	292.6
537.334	325.62
537.691	371.35
538.049	419.61
538.407	295.14
538.765	307.84
539.122	325.62
539.48	389.13
539.838	340.87
540.195	284.98
540.553	401.83
540.91	310.38
541.268	325.62
541.625	262.12
541.982	371.35
542.34	318
542.697	312.92
543.054	234.18
543.411	262.12
543.768	358.65
544.125	239.26
544.482	312.92
544.839	356.11
545.196	358.65
545.553	315.46
545.91	338.32
546.267	292.6
546.623	315.46
546.98	310.38
547.337	249.42
547.693	356.11
548.05	333.24
548.406	315.46
548.763	414.53
549.119	343.41
549.475	279.9
549.832	292.6
550.188	361.19
550.544	272.28
550.9	297.68
551.256	277.36
551.612	287.52
551.968	307.84
552.324	282.44
552.68	290.06
553.036	295.14
553.392	396.75
553.748	300.22
554.104	287.52
554.459	363.73
554.815	325.62
555.17	310.38
555.526	241.8
555.882	351.03
556.237	368.81
556.592	396.75
556.948	384.05
557.303	368.81
557.658	312.92
558.014	391.67
558.369	300.22
558.724	328.16
559.079	356.11
559.434	287.52
559.789	384.05
560.144	287.52
560.499	305.3
560.854	371.35
561.209	356.11
561.563	312.92
561.918	279.9
562.273	376.43
562.627	328.16
562.982	396.75
563.336	323.08
563.691	287.52
564.045	356.11
564.4	305.3
564.754	340.87
565.108	343.41
565.463	284.98
565.817	320.54
566.171	345.95
566.525	378.97
566.879	318
567.233	315.46
567.587	257.04
567.941	330.7
568.295	361.19
568.649	320.54
569.002	371.35
569.356	366.27
569.71	323.08
570.064	323.08
570.417	378.97
570.771	318
571.124	376.43
571.478	384.05
571.831	353.57
572.184	325.62
572.538	356.11
572.891	325.62
573.244	302.76
573.597	333.24
573.95	305.3
574.304	320.54
574.657	396.75
575.01	312.92
575.362	363.73
575.715	386.59
576.068	389.13
576.421	305.3
576.774	343.41
577.126	318
577.479	320.54
577.832	310.38
578.184	361.19
578.537	338.32
578.889	345.95
579.242	358.65
579.594	328.16
579.946	394.21
580.299	305.3
580.651	305.3
581.003	356.11
581.355	305.3
581.707	282.44
582.059	320.54
582.411	335.78
582.763	335.78
583.115	330.7
583.467	302.76
583.819	338.32
584.171	305.3
584.522	295.14
584.874	353.57
585.226	297.68
585.577	320.54
585.929	356.11
586.28	305.3
586.632	297.68
586.983	295.14
587.334	333.24
587.686	284.98
588.037	381.51
588.388	351.03
588.739	356.11
589.09	333.24
589.441	386.59
589.792	318
590.143	292.6
590.494	366.27
590.845	343.41
591.196	315.46
591.547	351.03
591.897	338.32
592.248	325.62
592.599	318
592.949	330.7
593.3	378.97
593.65	366.27
594.001	320.54
594.351	315.46
594.702	282.44
595.052	325.62
595.402	300.22
595.752	378.97
596.102	371.35
596.453	323.08
596.803	371.35
597.153	338.32
597.503	320.54
597.853	373.89
598.202	262.12
598.552	297.68
598.902	335.78
599.252	348.49
599.601	297.68
599.951	312.92
600.301	356.11
600.65	386.59
601	310.38
601.349	391.67
601.699	353.57
602.048	381.51
602.397	376.43
602.747	328.16
603.096	358.65
603.445	338.32
603.794	307.84
604.143	411.99
604.492	325.62
604.841	335.78
605.19	340.87
605.539	371.35
605.888	328.16
606.237	356.11
606.585	335.78
606.934	318
607.283	363.73
607.631	345.95
607.98	320.54
608.328	351.03
608.677	279.9
609.025	348.49
609.374	356.11
609.722	343.41
610.07	348.49
610.418	389.13
610.767	295.14
611.115	361.19
611.463	312.92
611.811	284.98
612.159	351.03
612.507	310.38
612.855	343.41
613.202	348.49
613.55	361.19
613.898	338.32
614.246	328.16
614.593	343.41
614.941	356.11
615.288	323.08
615.636	335.78
615.983	310.38
616.331	328.16
616.678	345.95
617.026	267.2
617.373	351.03
617.72	404.37
618.067	381.51
618.414	315.46
618.761	356.11
619.108	328.16
619.455	333.24
619.802	353.57
620.149	340.87
620.496	366.27
620.843	305.3
621.19	251.96
621.536	328.16
621.883	343.41
622.23	422.15
622.576	279.9
622.923	287.52
623.269	356.11
623.616	277.36
623.962	368.81
624.308	292.6
624.655	315.46
625.001	325.62
625.347	345.95
625.693	366.27
626.039	338.32
626.385	366.27
626.731	356.11
627.077	345.95
627.423	335.78
627.769	376.43
628.115	386.59
628.46	305.3
628.806	310.38
629.152	310.38
629.497	345.95
629.843	340.87
630.189	305.3
630.534	348.49
630.879	348.49
631.225	335.78
631.57	302.76
631.915	284.98
632.261	340.87
632.606	320.54
632.951	345.95
633.296	323.08
633.641	320.54
633.986	312.92
634.331	343.41
634.676	371.35
635.021	353.57
635.365	363.73
635.71	363.73
636.055	343.41
636.4	287.52
636.744	297.68
637.089	312.92
637.433	363.73
637.778	318
638.122	361.19
638.466	325.62
638.811	384.05
639.155	277.36
639.499	340.87
639.843	358.65
640.188	290.06
640.532	302.76
640.876	381.51
641.22	312.92
641.564	305.3
641.908	333.24
642.251	302.76
642.595	302.76
642.939	312.92
643.283	290.06
643.626	363.73
643.97	358.65
644.313	318
644.657	353.57
645	277.36
645.344	251.96
645.687	208.77
646.03	295.14
646.374	297.68
646.717	366.27
647.06	328.16
647.403	328.16
647.746	386.59
648.089	371.35
648.432	284.98
648.775	310.38
649.118	345.95
649.461	351.03
649.804	323.08
650.146	315.46
650.489	323.08
650.832	269.74
651.174	323.08
651.517	318
651.859	396.75
652.202	343.41
652.544	312.92
652.887	297.68
653.229	361.19
653.571	340.87
653.913	348.49
654.256	389.13
654.598	361.19
654.94	312.92
655.282	312.92
655.624	345.95
655.966	300.22
656.308	318
656.649	358.65
656.991	389.13
657.333	290.06
657.675	343.41
658.016	330.7
658.358	330.7
658.699	335.78
659.041	297.68
659.382	267.2
659.724	282.44
660.065	338.32
660.406	340.87
660.748	351.03
661.089	330.7
661.43	333.24
661.771	315.46
662.112	343.41
662.453	287.52
662.794	287.52
663.135	368.81
663.476	310.38
663.817	287.52
664.157	340.87
664.498	356.11
664.839	325.62
665.179	368.81
665.52	295.14
665.86	292.6
666.201	335.78
666.541	356.11
666.882	406.91
667.222	315.46
667.562	343.41
667.903	295.14
668.243	279.9
668.583	366.27
668.923	290.06
669.263	287.52
669.603	401.83
669.943	338.32
670.283	381.51
670.623	389.13
670.963	366.27
671.302	333.24
671.642	305.3
671.982	328.16
672.321	330.7
672.661	284.98
673	312.92
673.34	315.46
673.679	340.87
674.019	333.24
674.358	345.95
674.697	323.08
675.036	254.5
675.376	312.92
675.715	297.68
676.054	325.62
676.393	267.2
676.732	315.46
677.071	348.49
677.41	315.46
677.748	335.78
678.087	335.78
678.426	340.87
678.765	300.22
679.103	411.99
679.442	381.51
679.78	351.03
680.119	312.92
680.457	216.39
680.796	257.04
681.134	368.81
681.472	302.76
681.811	333.24
682.149	340.87
682.487	366.27
682.825	366.27
683.163	358.65
683.501	333.24
683.839	358.65
684.177	340.87
684.515	401.83
684.853	320.54
685.191	282.44
685.528	300.22
685.866	287.52
686.204	297.68
686.541	399.29
686.879	394.21
687.216	384.05
687.554	330.7
687.891	274.82
688.228	376.43
688.566	409.45
688.903	348.49
689.24	318
689.577	335.78
689.914	274.82
690.251	305.3
690.588	376.43
690.925	315.46
691.262	351.03
691.599	305.3
691.936	320.54
692.273	356.11
692.609	361.19
692.946	373.89
693.282	335.78
693.619	348.49
693.956	315.46
694.292	297.68
694.628	368.81
694.965	305.3
695.301	315.46
695.637	345.95
695.974	376.43
696.31	320.54
696.646	351.03
696.982	310.38
697.318	351.03
697.654	330.7
697.99	343.41
698.326	302.76
698.662	368.81
698.997	272.28
699.333	358.65
699.669	328.16
700.004	348.49
700.34	340.87
700.675	343.41
701.011	345.95
701.346	305.3
701.682	259.58
702.017	394.21
702.352	363.73
702.688	279.9
703.023	279.9
703.358	363.73
703.693	318
704.028	277.36
704.363	358.65
704.698	272.28
705.033	302.76
705.368	300.22
705.703	310.38
706.037	295.14
706.372	302.76
706.707	338.32
707.041	241.8
707.376	297.68
707.71	356.11
708.045	307.84
708.379	351.03
708.714	348.49
709.048	208.77
709.382	345.95
709.716	335.78
710.051	323.08
710.385	290.06
710.719	292.6
711.053	325.62
711.387	345.95
711.721	287.52
712.055	307.84
712.388	338.32
712.722	356.11
713.056	381.51
713.39	345.95
713.723	361.19
714.057	305.3
714.39	295.14
714.724	338.32
715.057	320.54
715.391	378.97
715.724	284.98
716.057	340.87
716.39	366.27
716.724	297.68
717.057	340.87
717.39	330.7
717.723	348.49
718.056	417.07
718.389	315.46
718.722	328.16
719.055	378.97
719.387	300.22
719.72	269.74
720.053	269.74
720.385	305.3
720.718	330.7
721.051	378.97
721.383	338.32
721.716	323.08
722.048	305.3
722.38	287.52
722.713	340.87
723.045	320.54
723.377	353.57
723.709	340.87
724.041	320.54
724.373	333.24
724.705	287.52
725.037	302.76
725.369	409.45
725.701	318
726.033	323.08
726.365	381.51
726.696	358.65
727.028	366.27
727.36	325.62
727.691	297.68
728.023	414.53
728.354	274.82
728.686	300.22
729.017	361.19
729.348	351.03
729.68	272.28
730.011	381.51
730.342	348.49
730.673	307.84
731.004	302.76
731.335	333.24
731.666	323.08
731.997	396.75
732.328	371.35
732.659	328.16
732.99	343.41
733.32	343.41
733.651	345.95
733.982	312.92
734.312	467.88
734.643	328.16
734.973	384.05
735.304	386.59
735.634	343.41
735.965	284.98
736.295	320.54
736.625	338.32
736.955	279.9
737.285	384.05
737.616	315.46
737.946	328.16
738.276	320.54
738.605	318
738.935	318
739.265	274.82
739.595	381.51
739.925	277.36
740.254	335.78
740.584	320.54
740.914	310.38
741.243	343.41
741.573	335.78
741.902	391.67
742.232	312.92
742.561	353.57
742.89	287.52
743.22	356.11
743.549	307.84
743.878	318
744.207	348.49
744.536	351.03
744.865	340.87
745.194	356.11
745.523	320.54
745.852	249.42
746.181	343.41
746.509	348.49
746.838	345.95
747.167	262.12
747.495	323.08
747.824	292.6
748.152	315.46
748.481	264.66
748.809	307.84
749.138	312.92
749.466	363.73
749.794	295.14
750.122	356.11
750.451	366.27
750.779	429.77
751.107	343.41
751.435	310.38
751.763	325.62
752.091	284.98
752.419	330.7
752.746	343.41
753.074	302.76
753.402	335.78
753.73	366.27
754.057	348.49
754.385	292.6
754.712	358.65
755.04	417.07
755.367	305.3
755.695	335.78
756.022	338.32
756.349	335.78
756.676	284.98
757.004	330.7
757.331	335.78
757.658	315.46
757.985	269.74
758.312	345.95
758.639	368.81
758.966	310.38
759.292	295.14
759.619	323.08
759.946	376.43
760.273	305.3
760.599	328.16
760.926	284.98
761.252	277.36
761.579	356.11
761.905	351.03
762.232	340.87
762.558	335.78
762.884	411.99
763.21	361.19
763.537	292.6
763.863	363.73
764.189	315.46
764.515	353.57
764.841	343.41
765.167	343.41
765.493	282.44
765.818	340.87
766.144	292.6
766.47	343.41
766.796	307.84
767.121	348.49
767.447	373.89
767.772	328.16
768.098	404.37
768.423	330.7
768.749	411.99
769.074	368.81
769.399	386.59
769.725	323.08
770.05	302.76
770.375	333.24
770.7	335.78
771.025	361.19
771.35	328.16
771.675	333.24
772	323.08
772.325	345.95
772.649	272.28
772.974	371.35
773.299	353.57
773.624	282.44
773.948	325.62
774.273	318
774.597	323.08
774.922	292.6
775.246	338.32
775.57	269.74
775.895	356.11
776.219	307.84
776.543	338.32
776.867	381.51
777.191	368.81
777.515	325.62
777.839	244.34
778.163	300.22
778.487	236.72
778.811	335.78
779.135	310.38
