Data from solis365c_3750mA_white_FLMS192441__4__16-09-54-163.txt Node

Date: Tue Sep 13 16:09:54 CEST 2022
User: Spectrometer
Spectrometer: FLMS19244
Trigger mode: 0
Integration Time (sec): 1.000000E-1
Scans to average: 1
Electric dark correction enabled: true
Nonlinearity correction enabled: false
Boxcar width: 0
XAxis mode: Wavelengths
Number of Pixels in Spectrum: 2048
>>>>>Begin Spectral Data<<<<<
338.974	-92.24
339.356	-92.24
339.738	-92.24
340.12	-84.62
340.502	-112.56
340.883	6.83
341.265	-122.72
341.647	-110.02
342.029	-49.06
342.41	-43.98
342.792	-104.94
343.173	-49.06
343.555	-21.12
343.936	19.53
344.318	32.23
344.699	16.99
345.08	39.85
345.462	42.39
345.843	88.11
346.224	136.38
346.605	118.6
346.986	144
347.368	110.98
347.749	230.37
348.13	121.14
348.51	255.77
348.891	243.07
349.272	144
349.653	204.96
350.034	230.37
350.414	212.58
350.795	286.25
351.176	232.91
351.556	329.43
351.937	255.77
352.317	235.45
352.698	217.66
353.078	276.09
353.459	248.15
353.839	349.76
354.219	258.31
354.599	263.39
354.98	304.03
355.36	324.35
355.74	304.03
356.12	298.95
356.5	281.17
356.88	321.81
357.26	357.38
357.64	362.46
358.02	359.92
358.399	326.89
358.779	331.97
359.159	278.63
359.539	347.22
359.918	375.16
360.298	298.95
360.677	321.81
361.057	278.63
361.436	268.47
361.816	255.77
362.195	248.15
362.574	296.41
362.954	293.87
363.333	314.19
363.712	243.07
364.091	187.18
364.47	283.71
364.849	306.57
365.228	296.41
365.607	255.77
365.986	298.95
366.365	260.85
366.744	217.66
367.123	237.99
367.501	268.47
367.88	268.47
368.259	255.77
368.637	278.63
369.016	273.55
369.394	202.42
369.773	309.11
370.151	314.19
370.53	227.83
370.908	265.93
371.286	281.17
371.665	232.91
372.043	321.81
372.421	273.55
372.799	309.11
373.177	382.78
373.555	387.86
373.933	382.78
374.311	448.82
374.689	558.05
375.067	479.31
375.445	492.01
375.823	525.03
376.2	593.62
376.578	621.56
376.956	634.26
377.333	730.79
377.711	677.44
378.088	735.87
378.466	796.83
378.843	761.27
379.22	784.13
379.598	875.58
379.975	842.56
380.352	842.56
380.73	946.71
381.107	964.49
381.484	1010.21
381.861	982.27
382.238	1033.07
382.615	1106.74
382.992	1256.61
383.369	1340.44
383.746	1403.94
384.122	1444.59
384.499	1515.71
384.876	1576.68
385.252	1490.31
385.629	1563.98
386.006	1645.27
386.382	1802.76
386.759	1929.77
387.135	1779.9
387.512	1810.38
387.888	1881.51
388.264	1904.37
388.641	1825.62
389.017	1914.53
389.393	1965.33
389.769	1980.57
390.145	1919.61
390.521	1962.79
390.897	1919.61
391.273	1894.21
391.649	1881.51
392.025	1815.46
392.401	1858.64
392.777	1845.94
393.152	1701.15
393.528	1716.39
393.904	1612.24
394.279	1774.82
394.655	1652.89
395.03	1660.51
395.406	1703.69
395.781	1637.64
396.157	1551.28
396.532	1597
396.907	1624.94
397.283	1536.04
397.658	1365.84
398.033	1556.36
398.408	1340.44
398.783	1383.62
399.158	1335.36
399.533	1320.12
399.908	1304.88
400.283	1210.89
400.658	1299.8
401.033	1320.12
401.407	1236.29
401.782	1172.79
402.157	1152.46
402.531	1114.36
402.906	1038.15
403.28	1073.72
403.655	1081.34
404.029	1045.77
404.404	1043.23
404.778	1045.77
405.153	961.95
405.527	923.84
405.901	936.55
406.275	900.98
406.649	982.27
407.023	885.74
407.397	926.38
407.771	867.96
408.145	865.42
408.519	845.1
408.893	827.32
409.267	791.75
409.641	842.56
410.015	781.59
410.388	862.88
410.762	806.99
411.136	763.81
411.509	819.7
411.883	789.21
412.256	687.6
412.63	725.71
413.003	761.27
413.376	723.17
413.75	713.01
414.123	697.77
414.496	715.55
414.869	652.04
415.242	705.39
415.615	710.47
415.988	687.6
416.361	705.39
416.734	654.58
417.107	664.74
417.48	626.64
417.853	636.8
418.226	547.89
418.598	613.94
418.971	619.02
419.344	626.64
419.716	570.75
420.089	667.28
420.461	608.86
420.834	616.48
421.206	621.56
421.578	639.34
421.951	550.43
422.323	580.92
422.695	601.24
423.067	542.81
423.439	504.71
423.812	568.21
424.184	537.73
424.556	573.29
424.928	568.21
425.299	555.51
425.671	514.87
426.043	545.35
426.415	497.09
426.787	504.71
427.158	601.24
427.53	509.79
427.902	458.99
428.273	448.82
428.645	509.79
429.016	425.96
429.387	497.09
429.759	552.97
430.13	507.25
430.501	492.01
430.873	433.58
431.244	448.82
431.615	507.25
431.986	474.23
432.357	446.28
432.728	646.96
433.099	420.88
433.47	428.5
433.841	453.9
434.212	509.79
434.583	540.27
434.953	492.01
435.324	436.12
435.695	443.74
436.065	446.28
436.436	410.72
436.806	481.85
437.177	453.9
437.547	453.9
437.918	428.5
438.288	451.36
438.658	446.28
439.028	453.9
439.399	413.26
439.769	425.96
440.139	522.49
440.509	464.07
440.879	398.02
441.249	423.42
441.619	382.78
441.989	390.4
442.359	438.66
442.728	359.92
443.098	433.58
443.468	352.3
443.838	425.96
444.207	425.96
444.577	395.48
444.946	413.26
445.316	357.38
445.685	423.42
446.055	367.54
446.424	342.14
446.793	398.02
447.163	446.28
447.532	372.62
447.901	400.56
448.27	413.26
448.639	410.72
449.008	392.94
449.377	423.42
449.746	400.56
450.115	428.5
450.484	385.32
450.853	382.78
451.221	362.46
451.59	385.32
451.959	415.8
452.327	408.18
452.696	337.05
453.065	316.73
453.433	453.9
453.801	377.7
454.17	375.16
454.538	425.96
454.907	375.16
455.275	362.46
455.643	420.88
456.011	276.09
456.379	377.7
456.747	301.49
457.115	362.46
457.483	400.56
457.851	359.92
458.219	395.48
458.587	398.02
458.955	423.42
459.323	283.71
459.69	359.92
460.058	448.82
460.426	405.64
460.793	372.62
461.161	372.62
461.528	385.32
461.896	349.76
462.263	352.3
462.631	408.18
462.998	372.62
463.365	377.7
463.732	314.19
464.1	362.46
464.467	415.8
464.834	362.46
465.201	365
465.568	316.73
465.935	392.94
466.302	428.5
466.669	326.89
467.035	362.46
467.402	329.43
467.769	367.54
468.136	395.48
468.502	329.43
468.869	352.3
469.235	354.84
469.602	319.27
469.968	382.78
470.335	288.79
470.701	403.1
471.067	342.14
471.434	365
471.8	342.14
472.166	329.43
472.532	321.81
472.898	357.38
473.264	316.73
473.63	372.62
473.996	339.59
474.362	220.2
474.728	319.27
475.094	309.11
475.46	418.34
475.825	329.43
476.191	408.18
476.557	359.92
476.922	344.68
477.288	349.76
477.653	319.27
478.019	349.76
478.384	385.32
478.749	331.97
479.115	370.08
479.48	354.84
479.845	329.43
480.21	331.97
480.576	418.34
480.941	344.68
481.306	357.38
481.671	329.43
482.036	326.89
482.401	405.64
482.765	352.3
483.13	390.4
483.495	324.35
483.86	288.79
484.224	469.15
484.589	316.73
484.954	375.16
485.318	296.41
485.683	349.76
486.047	324.35
486.412	436.12
486.776	413.26
487.14	258.31
487.504	400.56
487.869	321.81
488.233	362.46
488.597	331.97
488.961	324.35
489.325	385.32
489.689	337.05
490.053	352.3
490.417	342.14
490.781	342.14
491.145	286.25
491.508	339.59
491.872	372.62
492.236	377.7
492.599	392.94
492.963	273.55
493.327	390.4
493.69	387.86
494.054	370.08
494.417	372.62
494.78	342.14
495.144	293.87
495.507	314.19
495.87	288.79
496.233	311.65
496.596	362.46
496.959	398.02
497.322	377.7
497.685	385.32
498.048	347.22
498.411	428.5
498.774	365
499.137	263.39
499.5	301.49
499.862	370.08
500.225	400.56
500.588	392.94
500.95	367.54
501.313	387.86
501.675	344.68
502.038	425.96
502.4	362.46
502.762	314.19
503.125	293.87
503.487	418.34
503.849	362.46
504.211	326.89
504.574	326.89
504.936	316.73
505.298	334.51
505.66	296.41
506.022	359.92
506.383	380.24
506.745	380.24
507.107	331.97
507.469	375.16
507.831	395.48
508.192	304.03
508.554	400.56
508.915	347.22
509.277	398.02
509.638	398.02
510	321.81
510.361	354.84
510.723	349.76
511.084	319.27
511.445	365
511.806	296.41
512.167	311.65
512.529	390.4
512.89	385.32
513.251	321.81
513.612	359.92
513.972	326.89
514.333	354.84
514.694	337.05
515.055	311.65
515.416	405.64
515.776	405.64
516.137	377.7
516.498	314.19
516.858	342.14
517.219	321.81
517.579	326.89
517.94	334.51
518.3	352.3
518.66	316.73
519.021	301.49
519.381	329.43
519.741	367.54
520.101	331.97
520.461	293.87
520.821	250.69
521.181	339.59
521.541	370.08
521.901	413.26
522.261	296.41
522.621	316.73
522.981	365
523.34	329.43
523.7	331.97
524.06	365
524.419	359.92
524.779	357.38
525.138	344.68
525.498	311.65
525.857	296.41
526.216	359.92
526.576	298.95
526.935	387.86
527.294	352.3
527.653	319.27
528.013	319.27
528.372	365
528.731	354.84
529.09	271.01
529.449	344.68
529.807	349.76
530.166	387.86
530.525	347.22
530.884	326.89
531.243	377.7
531.601	293.87
531.96	248.15
532.318	339.59
532.677	253.23
533.035	319.27
533.394	382.78
533.752	349.76
534.111	273.55
534.469	362.46
534.827	370.08
535.185	382.78
535.543	319.27
535.902	347.22
536.26	286.25
536.618	365
536.976	311.65
537.334	349.76
537.691	395.48
538.049	324.35
538.407	321.81
538.765	337.05
539.122	329.43
539.48	342.14
539.838	286.25
540.195	316.73
540.553	309.11
540.91	319.27
541.268	291.33
541.625	314.19
541.982	395.48
542.34	278.63
542.697	349.76
543.054	347.22
543.411	331.97
543.768	347.22
544.125	365
544.482	324.35
544.839	324.35
545.196	286.25
545.553	339.59
545.91	326.89
546.267	362.46
546.623	352.3
546.98	304.03
547.337	339.59
547.693	390.4
548.05	326.89
548.406	331.97
548.763	337.05
549.119	283.71
549.475	405.64
549.832	324.35
550.188	403.1
550.544	324.35
550.9	321.81
551.256	311.65
551.612	265.93
551.968	352.3
552.324	296.41
552.68	271.01
553.036	321.81
553.392	415.8
553.748	342.14
554.104	273.55
554.459	352.3
554.815	311.65
555.17	331.97
555.526	362.46
555.882	281.17
556.237	331.97
556.592	296.41
556.948	382.78
557.303	316.73
557.658	362.46
558.014	398.02
558.369	278.63
558.724	398.02
559.079	288.79
559.434	362.46
559.789	319.27
560.144	334.51
560.499	344.68
560.854	329.43
561.209	281.17
561.563	258.31
561.918	347.22
562.273	357.38
562.627	288.79
562.982	316.73
563.336	298.95
563.691	288.79
564.045	248.15
564.4	354.84
564.754	359.92
565.108	375.16
565.463	304.03
565.817	324.35
566.171	418.34
566.525	344.68
566.879	296.41
567.233	291.33
567.587	337.05
567.941	334.51
568.295	326.89
568.649	319.27
569.002	326.89
569.356	405.64
569.71	367.54
570.064	375.16
570.417	329.43
570.771	349.76
571.124	286.25
571.478	339.59
571.831	337.05
572.184	324.35
572.538	329.43
572.891	314.19
573.244	359.92
573.597	415.8
573.95	352.3
574.304	359.92
574.657	352.3
575.01	334.51
575.362	331.97
575.715	362.46
576.068	304.03
576.421	347.22
576.774	362.46
577.126	311.65
577.479	276.09
577.832	331.97
578.184	334.51
578.537	337.05
578.889	382.78
579.242	380.24
579.594	337.05
579.946	382.78
580.299	319.27
580.651	281.17
581.003	324.35
581.355	324.35
581.707	255.77
582.059	339.59
582.411	387.86
582.763	347.22
583.115	311.65
583.467	339.59
583.819	298.95
584.171	334.51
584.522	349.76
584.874	357.38
585.226	349.76
585.577	400.56
585.929	296.41
586.28	349.76
586.632	298.95
586.983	324.35
587.334	298.95
587.686	339.59
588.037	298.95
588.388	304.03
588.739	326.89
589.09	375.16
589.441	395.48
589.792	314.19
590.143	403.1
590.494	349.76
590.845	291.33
591.196	306.57
591.547	316.73
591.897	337.05
592.248	268.47
592.599	337.05
592.949	273.55
593.3	288.79
593.65	319.27
594.001	349.76
594.351	359.92
594.702	403.1
595.052	370.08
595.402	380.24
595.752	293.87
596.102	365
596.453	286.25
596.803	365
597.153	329.43
597.503	301.49
597.853	337.05
598.202	263.39
598.552	296.41
598.902	293.87
599.252	316.73
599.601	354.84
599.951	337.05
600.301	288.79
600.65	362.46
601	359.92
601.349	235.45
601.699	334.51
602.048	380.24
602.397	372.62
602.747	349.76
603.096	248.15
603.445	326.89
603.794	365
604.143	276.09
604.492	390.4
604.841	334.51
605.19	344.68
605.539	331.97
605.888	415.8
606.237	354.84
606.585	271.01
606.934	372.62
607.283	331.97
607.631	331.97
607.98	286.25
608.328	387.86
608.677	377.7
609.025	408.18
609.374	387.86
609.722	349.76
610.07	405.64
610.418	334.51
610.767	278.63
611.115	324.35
611.463	354.84
611.811	347.22
612.159	306.57
612.507	349.76
612.855	281.17
613.202	362.46
613.55	370.08
613.898	288.79
614.246	268.47
614.593	326.89
614.941	265.93
615.288	309.11
615.636	283.71
615.983	314.19
616.331	283.71
616.678	339.59
617.026	288.79
617.373	316.73
617.72	311.65
618.067	352.3
618.414	380.24
618.761	268.47
619.108	329.43
619.455	265.93
619.802	392.94
620.149	375.16
620.496	304.03
620.843	344.68
621.19	319.27
621.536	372.62
621.883	271.01
622.23	357.38
622.576	347.22
622.923	329.43
623.269	311.65
623.616	301.49
623.962	415.8
624.308	354.84
624.655	324.35
625.001	382.78
625.347	331.97
625.693	291.33
626.039	326.89
626.385	331.97
626.731	301.49
627.077	316.73
627.423	291.33
627.769	273.55
628.115	301.49
628.46	286.25
628.806	314.19
629.152	347.22
629.497	296.41
629.843	448.82
630.189	314.19
630.534	260.85
630.879	324.35
631.225	344.68
631.57	324.35
631.915	337.05
632.261	367.54
632.606	286.25
632.951	357.38
633.296	347.22
633.641	354.84
633.986	288.79
634.331	258.31
634.676	309.11
635.021	319.27
635.365	276.09
635.71	314.19
636.055	344.68
636.4	339.59
636.744	334.51
637.089	390.4
637.433	342.14
637.778	311.65
638.122	293.87
638.466	321.81
638.811	349.76
639.155	296.41
639.499	271.01
639.843	271.01
640.188	372.62
640.532	339.59
640.876	319.27
641.22	321.81
641.564	418.34
641.908	296.41
642.251	293.87
642.595	288.79
642.939	296.41
643.283	334.51
643.626	314.19
643.97	265.93
644.313	339.59
644.657	304.03
645	301.49
645.344	357.38
645.687	344.68
646.03	329.43
646.374	362.46
646.717	291.33
647.06	390.4
647.403	372.62
647.746	344.68
648.089	331.97
648.432	189.72
648.775	359.92
649.118	306.57
649.461	286.25
649.804	337.05
650.146	357.38
650.489	319.27
650.832	298.95
651.174	304.03
651.517	278.63
651.859	314.19
652.202	288.79
652.544	324.35
652.887	337.05
653.229	339.59
653.571	301.49
653.913	344.68
654.256	286.25
654.598	288.79
654.94	288.79
655.282	326.89
655.624	281.17
655.966	268.47
656.308	304.03
656.649	324.35
656.991	263.39
657.333	337.05
657.675	309.11
658.016	337.05
658.358	326.89
658.699	331.97
659.041	309.11
659.382	324.35
659.724	324.35
660.065	273.55
660.406	311.65
660.748	359.92
661.089	286.25
661.43	260.85
661.771	286.25
662.112	301.49
662.453	314.19
662.794	339.59
663.135	281.17
663.476	319.27
663.817	311.65
664.157	316.73
664.498	304.03
664.839	220.2
665.179	324.35
665.52	311.65
665.86	309.11
666.201	311.65
666.541	316.73
666.882	291.33
667.222	337.05
667.562	283.71
667.903	296.41
668.243	314.19
668.583	271.01
668.923	278.63
669.263	276.09
669.603	324.35
669.943	347.22
670.283	306.57
670.623	309.11
670.963	344.68
671.302	342.14
671.642	304.03
671.982	273.55
672.321	339.59
672.661	342.14
673	347.22
673.34	342.14
673.679	316.73
674.019	283.71
674.358	352.3
674.697	263.39
675.036	281.17
675.376	324.35
675.715	240.53
676.054	326.89
676.393	357.38
676.732	342.14
677.071	265.93
677.41	286.25
677.748	329.43
678.087	283.71
678.426	301.49
678.765	263.39
679.103	253.23
679.442	390.4
679.78	342.14
680.119	387.86
680.457	372.62
680.796	301.49
681.134	395.48
681.472	301.49
681.811	298.95
682.149	311.65
682.487	265.93
682.825	276.09
683.163	367.54
683.501	273.55
683.839	311.65
684.177	329.43
684.515	298.95
684.853	359.92
685.191	352.3
685.528	342.14
685.866	324.35
686.204	273.55
686.541	298.95
686.879	352.3
687.216	316.73
687.554	250.69
687.891	311.65
688.228	329.43
688.566	321.81
688.903	319.27
689.24	281.17
689.577	306.57
689.914	253.23
690.251	296.41
690.588	324.35
690.925	250.69
691.262	354.84
691.599	276.09
691.936	293.87
692.273	311.65
692.609	291.33
692.946	321.81
693.282	283.71
693.619	377.7
693.956	362.46
694.292	316.73
694.628	403.1
694.965	362.46
695.301	370.08
695.637	347.22
695.974	288.79
696.31	331.97
696.646	372.62
696.982	253.23
697.318	304.03
697.654	293.87
697.99	260.85
698.326	316.73
698.662	372.62
698.997	311.65
699.333	276.09
699.669	367.54
700.004	263.39
700.34	235.45
700.675	276.09
701.011	314.19
701.346	258.31
701.682	311.65
702.017	304.03
702.352	329.43
702.688	296.41
703.023	324.35
703.358	352.3
703.693	352.3
704.028	334.51
704.363	283.71
704.698	326.89
705.033	367.54
705.368	316.73
705.703	281.17
706.037	367.54
706.372	349.76
706.707	370.08
707.041	354.84
707.376	347.22
707.71	380.24
708.045	309.11
708.379	298.95
708.714	347.22
709.048	334.51
709.382	380.24
709.716	278.63
710.051	324.35
710.385	309.11
710.719	362.46
711.053	334.51
711.387	400.56
711.721	296.41
712.055	314.19
712.388	362.46
712.722	342.14
713.056	324.35
713.39	309.11
713.723	316.73
714.057	372.62
714.39	281.17
714.724	337.05
715.057	319.27
715.391	334.51
715.724	377.7
716.057	326.89
716.39	344.68
716.724	248.15
717.057	215.12
717.39	329.43
717.723	309.11
718.056	301.49
718.389	359.92
718.722	319.27
719.055	375.16
719.387	329.43
719.72	260.85
720.053	293.87
720.385	288.79
720.718	352.3
721.051	365
721.383	306.57
721.716	311.65
722.048	359.92
722.38	291.33
722.713	347.22
723.045	278.63
723.377	367.54
723.709	298.95
724.041	326.89
724.373	380.24
724.705	293.87
725.037	359.92
725.369	375.16
725.701	278.63
726.033	309.11
726.365	276.09
726.696	268.47
727.028	362.46
727.36	258.31
727.691	370.08
728.023	268.47
728.354	319.27
728.686	296.41
729.017	298.95
729.348	334.51
729.68	304.03
730.011	344.68
730.342	258.31
730.673	334.51
731.004	245.61
731.335	367.54
731.666	326.89
731.997	334.51
732.328	306.57
732.659	375.16
732.99	273.55
733.32	268.47
733.651	342.14
733.982	258.31
734.312	331.97
734.643	296.41
734.973	278.63
735.304	342.14
735.634	278.63
735.965	347.22
736.295	319.27
736.625	385.32
736.955	342.14
737.285	273.55
737.616	324.35
737.946	339.59
738.276	331.97
738.605	265.93
738.935	321.81
739.265	199.88
739.595	248.15
739.925	291.33
740.254	309.11
740.584	347.22
740.914	276.09
741.243	314.19
741.573	240.53
741.902	304.03
742.232	288.79
742.561	298.95
742.89	306.57
743.22	276.09
743.549	301.49
743.878	263.39
744.207	354.84
744.536	375.16
744.865	420.88
745.194	281.17
745.523	296.41
745.852	342.14
746.181	281.17
746.509	288.79
746.838	337.05
747.167	319.27
747.495	352.3
747.824	377.7
748.152	283.71
748.481	283.71
748.809	304.03
749.138	352.3
749.466	344.68
749.794	301.49
750.122	311.65
750.451	377.7
750.779	331.97
751.107	331.97
751.435	342.14
751.763	316.73
752.091	344.68
752.419	367.54
752.746	301.49
753.074	240.53
753.402	268.47
753.73	337.05
754.057	273.55
754.385	291.33
754.712	311.65
755.04	288.79
755.367	314.19
755.695	255.77
756.022	352.3
756.349	316.73
756.676	288.79
757.004	316.73
757.331	309.11
757.658	382.78
757.985	268.47
758.312	319.27
758.639	283.71
758.966	293.87
759.292	265.93
759.619	375.16
759.946	283.71
760.273	215.12
760.599	347.22
760.926	354.84
761.252	296.41
761.579	372.62
761.905	344.68
762.232	314.19
762.558	357.38
762.884	293.87
763.21	342.14
763.537	372.62
763.863	316.73
764.189	344.68
764.515	337.05
764.841	250.69
765.167	306.57
765.493	298.95
765.818	276.09
766.144	324.35
766.47	357.38
766.796	227.83
767.121	298.95
767.447	309.11
767.772	260.85
768.098	248.15
768.423	278.63
768.749	375.16
769.074	380.24
769.399	352.3
769.725	304.03
770.05	339.59
770.375	286.25
770.7	365
771.025	352.3
771.35	347.22
771.675	344.68
772	354.84
772.325	301.49
772.649	306.57
772.974	324.35
773.299	403.1
773.624	367.54
773.948	377.7
774.273	324.35
774.597	347.22
774.922	331.97
775.246	268.47
775.57	288.79
775.895	347.22
776.219	349.76
776.543	210.04
