Data from solis1d_750mA_white_FLMS192441__1__16-05-24-377.txt Node

Date: Tue Sep 13 16:05:24 CEST 2022
User: Spectrometer
Spectrometer: FLMS19244
Trigger mode: 0
Integration Time (sec): 1.000000E-1
Scans to average: 1
Electric dark correction enabled: true
Nonlinearity correction enabled: false
Boxcar width: 0
XAxis mode: Wavelengths
Number of Pixels in Spectrum: 2048
>>>>>Begin Spectral Data<<<<<
338.974	-43.5
339.356	-43.5
339.738	-43.5
340.12	-68.9
340.502	-43.5
340.883	-104.47
341.265	-30.8
341.647	-71.44
342.029	-40.96
342.41	-84.14
342.792	-38.42
343.173	4.76
343.555	4.76
343.936	4.76
344.318	-7.94
344.699	14.92
345.08	12.38
345.462	68.27
345.843	22.54
346.224	96.21
346.605	149.56
346.986	126.69
347.368	205.44
347.749	202.9
348.13	185.12
348.51	296.89
348.891	205.44
349.272	294.35
349.653	268.95
350.034	314.67
350.414	294.35
350.795	294.35
351.176	340.07
351.556	317.21
351.937	350.23
352.317	345.15
352.698	324.83
353.078	362.93
353.459	345.15
353.839	479.78
354.219	406.12
354.599	345.15
354.98	393.42
355.36	355.31
355.74	375.63
356.12	385.8
356.5	355.31
356.88	413.74
357.26	411.2
357.64	289.27
358.02	345.15
358.399	350.23
358.779	291.81
359.159	347.69
359.539	337.53
359.918	350.23
360.298	378.17
360.677	378.17
361.057	319.75
361.436	258.78
361.816	352.77
362.195	411.2
362.574	324.83
362.954	362.93
363.333	317.21
363.712	312.13
364.091	312.13
364.47	355.31
364.849	362.93
365.228	345.15
365.607	368.01
365.986	357.85
366.365	406.12
366.744	312.13
367.123	360.39
367.501	411.2
367.88	284.19
368.259	350.23
368.637	312.13
369.016	444.22
369.394	301.97
369.773	416.28
370.151	428.98
370.53	312.13
370.908	317.21
371.286	383.25
371.665	304.51
372.043	365.47
372.421	362.93
372.799	360.39
373.177	352.77
373.555	375.63
373.933	360.39
374.311	357.85
374.689	403.58
375.067	388.34
375.445	334.99
375.823	337.53
376.2	355.31
376.578	342.61
376.956	329.91
377.333	395.96
377.711	370.55
378.088	314.67
378.466	368.01
378.843	271.49
379.22	370.55
379.598	347.69
379.975	345.15
380.352	340.07
380.73	352.77
381.107	307.05
381.484	294.35
381.861	345.15
382.238	332.45
382.615	388.34
382.992	345.15
383.369	365.47
383.746	370.55
384.122	459.46
384.499	451.84
384.876	314.67
385.252	334.99
385.629	444.22
386.006	329.91
386.382	347.69
386.759	421.36
387.135	360.39
387.512	368.01
387.888	342.61
388.264	324.83
388.641	373.09
389.017	388.34
389.393	350.23
389.769	378.17
390.145	334.99
390.521	439.14
390.897	441.68
391.273	383.25
391.649	345.15
392.025	345.15
392.401	350.23
392.777	327.37
393.152	378.17
393.528	360.39
393.904	360.39
394.279	327.37
394.655	390.88
395.03	411.2
395.406	423.9
395.781	322.29
396.157	401.04
396.532	388.34
396.907	428.98
397.283	418.82
397.658	347.69
398.033	418.82
398.408	380.71
398.783	375.63
399.158	406.12
399.533	436.6
399.908	431.52
400.283	266.41
400.658	421.36
401.033	421.36
401.407	441.68
401.782	423.9
402.157	395.96
402.531	393.42
402.906	434.06
403.28	434.06
403.655	357.85
404.029	370.55
404.404	464.54
404.778	378.17
405.153	418.82
405.527	426.44
405.901	434.06
406.275	444.22
406.649	426.44
407.023	462
407.397	441.68
407.771	449.3
408.145	449.3
408.519	350.23
408.893	479.78
409.267	444.22
409.641	436.6
410.015	411.2
410.388	479.78
410.762	451.84
411.136	515.35
411.509	507.73
411.883	459.46
412.256	502.64
412.63	545.83
413.003	505.19
413.376	528.05
413.75	507.73
414.123	591.55
414.496	591.55
414.869	566.15
415.242	766.83
415.615	655.06
415.988	695.7
416.361	731.26
416.734	789.69
417.107	810.01
417.48	845.57
417.853	937.02
418.226	985.29
418.598	1018.31
418.971	1119.92
419.344	1183.42
419.716	1203.74
420.089	1320.59
420.461	1376.48
420.834	1574.62
421.206	1485.71
421.578	1617.8
421.951	1787.99
422.323	1922.63
422.695	2026.77
423.067	2184.27
423.439	2296.04
423.812	2560.22
424.184	2656.75
424.556	2755.82
424.928	3063.18
425.299	3185.11
425.671	3327.36
426.043	3446.75
426.415	3891.29
426.787	4061.49
427.158	4264.7
427.53	4503.48
427.902	4866.73
428.273	5003.91
428.645	5311.27
429.016	5641.5
429.387	6152.08
429.759	6472.15
430.13	6865.88
430.501	7292.64
430.873	7701.61
431.244	7810.84
431.615	8468.76
431.986	8862.49
432.357	9472.14
432.728	10206.27
433.099	10437.42
433.47	10991.19
433.841	11623.71
434.212	12426.41
434.583	12886.19
434.953	13762.57
435.324	14207.1
435.695	15327.34
436.065	16246.9
436.436	17044.52
436.806	17732.92
437.177	19147.82
437.547	19892.1
437.918	21296.84
438.288	21990.32
438.658	23242.65
439.028	24505.13
439.399	25592.35
439.769	26646.54
440.139	28231.63
440.509	29072.44
440.879	30906.48
441.249	31668.54
441.619	33146.94
441.989	34335.77
442.359	35577.93
442.728	36246.01
443.098	37617.72
443.468	38290.88
443.838	38824.32
444.207	39548.29
444.577	40104.59
444.946	40399.26
445.316	40422.12
445.685	40292.57
446.055	41156.24
446.424	40135.08
446.793	39896.3
447.163	39494.94
447.532	38501.72
447.901	37663.45
448.27	36553.37
448.639	35819.25
449.008	34673.61
449.377	33606.72
449.746	31953.04
450.115	31165.58
450.484	29207.07
450.853	28478.03
451.221	26750.68
451.59	25551.7
451.959	24136.8
452.327	23153.74
452.696	21827.75
453.065	21192.69
453.433	19719.37
453.801	18931.9
454.17	17722.76
454.538	17430.64
454.907	16447.57
455.275	15406.08
455.643	15032.67
456.011	14463.67
456.379	13892.12
456.747	13236.74
457.115	13071.63
457.483	12830.31
457.851	12388.31
458.219	11938.69
458.587	11600.84
458.955	11245.21
459.323	11087.72
459.69	11090.26
460.058	10876.88
460.426	10594.92
460.793	10244.37
461.161	10114.82
461.528	9782.05
461.896	9568.67
462.263	9604.23
462.631	9119.05
462.998	9096.19
463.365	8857.41
463.732	8481.46
464.1	8245.22
464.467	8014.06
464.834	7767.66
465.201	7861.65
465.568	7246.92
465.935	7297.72
466.302	7175.79
466.669	6693.15
467.035	6728.71
467.402	6487.39
467.769	6233.37
468.136	6080.96
468.502	5915.84
468.869	5801.53
469.235	5677.06
469.602	5656.74
469.968	5285.87
470.335	5323.97
470.701	5186.8
471.067	5123.3
471.434	5001.37
471.8	4953.1
472.166	4846.41
472.532	4925.16
472.898	4770.21
473.264	4627.95
473.63	4635.57
473.996	4633.03
474.362	4584.77
474.728	4503.48
475.094	4610.17
475.46	4633.03
475.825	4536.51
476.191	4622.87
476.557	4602.55
476.922	4676.22
477.288	4536.51
477.653	4554.29
478.019	4577.15
478.384	4582.23
478.749	4688.92
479.115	4579.69
479.48	4627.95
479.845	4691.46
480.21	4597.47
480.576	4625.41
480.941	4620.33
481.306	4757.5
481.671	4798.15
482.036	4716.86
482.401	4805.77
482.765	4843.87
483.13	4815.93
483.495	4861.65
483.86	4785.45
484.224	4978.5
484.589	4925.16
484.954	4988.66
485.318	5194.42
485.683	5268.09
486.047	5415.42
486.412	5580.53
486.776	5791.37
487.14	5776.13
487.504	5926
487.869	6111.44
488.233	6233.37
488.597	6380.7
488.961	6500.09
489.325	6858.26
489.689	6997.97
490.053	7450.13
490.417	7625.41
490.781	7846.41
491.145	8458.6
491.508	8445.9
491.872	8778.66
492.236	9162.24
492.599	9484.84
492.963	10097.04
493.327	10257.07
493.69	10754.95
494.054	11407.79
494.417	11529.72
494.78	12012.36
495.144	12489.92
495.507	13135.13
495.87	13434.88
496.233	14171.54
496.596	14362.06
496.959	15164.76
497.322	15954.77
497.685	16439.95
498.048	17214.72
498.411	18007.26
498.774	18494.99
499.137	19203.71
499.5	19762.55
499.862	20336.64
500.225	20966.61
500.588	22231.64
500.95	22760.01
501.313	23750.69
501.675	23997.09
502.038	24870.92
502.4	25843.83
502.762	26651.62
503.125	27121.56
503.487	28061.43
503.849	28884.46
504.211	30047.88
504.574	30802.33
504.936	31518.67
505.298	32303.59
505.66	33756.6
506.022	34231.62
506.383	35041.94
506.745	35953.88
507.107	36604.18
507.469	37945.41
507.831	38428.05
508.192	38979.28
508.554	39848.03
508.915	40777.75
509.277	41463.61
509.638	41984.35
510	42746.42
510.361	43719.32
510.723	44057.17
511.084	45126.6
511.445	45383.16
511.806	46089.34
512.167	46808.22
512.529	47364.53
512.89	48395.85
513.251	48748.94
513.612	48731.16
513.972	49592.29
514.333	49942.84
514.694	49605
515.055	50674.43
515.416	50839.54
515.776	50867.48
516.137	51637.17
516.498	51621.93
516.858	52434.8
517.219	52544.02
517.579	53344.19
517.94	53379.75
518.3	53494.06
518.66	54164.68
519.021	54192.62
519.381	54619.38
519.741	55241.73
520.101	54779.41
520.461	55018.19
520.821	55231.57
521.181	55881.87
521.541	55470.35
521.901	55721.83
522.261	56415.31
522.621	55983.48
522.981	56364.51
523.34	56524.54
523.7	56854.77
524.06	56844.61
524.419	56745.54
524.779	57185
525.138	56844.61
525.498	56699.82
525.857	56887.79
526.216	57228.18
526.576	57367.89
526.935	57202.78
527.294	57454.26
527.653	57456.8
528.013	57611.75
528.372	57403.46
528.731	57141.81
529.09	57238.34
529.449	57461.88
529.807	57479.66
530.166	57268.82
530.525	57461.88
530.884	57271.36
531.243	57301.85
531.601	57484.74
531.96	57124.03
532.318	57103.71
532.677	57370.43
533.035	56948.76
533.394	56547.4
533.752	56605.83
534.111	56951.3
534.469	57210.4
534.827	57091.01
535.185	57042.74
535.543	56687.11
535.902	57052.91
536.26	56948.76
536.618	56918.27
536.976	56722.68
537.334	56717.6
537.691	56636.31
538.049	56867.47
538.407	56643.93
538.765	56689.65
539.122	56727.76
539.48	56514.38
539.838	56791.26
540.195	56720.14
540.553	56697.28
540.91	56849.69
541.268	56529.62
541.625	56956.38
541.982	56412.77
542.34	56951.3
542.697	56880.17
543.054	56857.31
543.411	56974.16
543.768	57469.5
544.125	56981.78
544.482	57073.23
544.839	57248.5
545.196	56870.01
545.553	56941.14
545.91	57007.18
546.267	57083.39
546.623	56753.16
546.98	56727.76
547.337	56839.53
547.693	56938.6
548.05	56773.48
548.406	57060.53
548.763	56905.57
549.119	56930.98
549.475	56760.78
549.832	56999.56
550.188	56740.46
550.544	56740.46
550.9	56676.95
551.256	56864.93
551.612	56593.13
551.968	56758.24
552.324	56986.86
552.68	56458.5
553.036	56969.08
553.392	57243.42
553.748	56748.08
554.104	56887.79
554.459	56943.68
554.815	57024.96
555.17	57030.04
555.526	57068.15
555.882	57207.86
556.237	57002.1
556.592	57322.17
556.948	57106.25
557.303	56882.71
557.658	57667.64
558.014	57454.26
558.369	57599.05
558.724	57662.56
559.079	57601.59
559.434	57451.72
559.789	57599.05
560.144	58096.93
560.499	58002.95
560.854	57906.42
561.209	58002.95
561.563	57827.67
561.918	57985.16
562.273	57990.24
562.627	58256.97
562.982	58239.19
563.336	58485.59
563.691	58229.02
564.045	58587.2
564.4	58279.83
564.754	58726.91
565.108	58450.02
565.463	58462.72
565.817	58688.8
566.171	58081.69
566.525	58356.04
566.879	58610.06
567.233	58579.57
567.587	58190.92
567.941	58333.17
568.295	58546.55
568.649	58109.63
569.002	58226.48
569.356	58140.12
569.71	58262.05
570.064	57693.04
570.417	58129.96
570.771	58239.19
571.124	58063.91
571.478	57881.02
571.831	57571.11
572.184	57591.43
572.538	57599.05
572.891	57644.78
573.244	57314.55
573.597	57195.16
573.95	57378.05
574.304	57339.95
574.657	57129.11
575.01	57030.04
575.362	56773.48
575.715	57047.83
576.068	57240.88
576.421	56826.83
576.774	56903.03
577.126	56796.34
577.479	57121.49
577.832	56669.33
578.184	56369.59
578.537	56057.14
578.889	55673.57
579.242	56151.13
579.594	56229.88
579.946	56374.67
580.299	55696.43
580.651	55960.61
581.003	55894.57
581.355	55701.51
581.707	55523.7
582.059	55795.5
582.411	55124.88
582.763	55325.56
583.115	55620.22
583.467	55312.86
583.819	55310.32
584.171	54924.21
584.522	55091.86
584.874	54903.88
585.226	54652.4
585.577	54662.56
585.929	54743.85
586.28	54370.44
586.632	54337.42
586.983	54423.78
587.334	53951.3
587.686	53809.05
588.037	53567.73
588.388	53316.25
588.739	53603.29
589.09	53102.87
589.441	52843.77
589.792	52983.48
590.143	52231.58
590.494	52411.93
590.845	51672.73
591.196	51903.89
591.547	51375.53
591.897	51111.34
592.248	50925.91
592.599	51116.42
592.949	50301.01
593.3	50072.4
593.65	49315.41
594.001	49320.49
594.351	48647.33
594.702	48743.86
595.052	48558.43
595.402	48139.29
595.752	48045.3
596.102	47788.74
596.453	47313.72
596.803	47151.15
597.153	46264.61
597.503	46686.29
597.853	46008.05
598.202	45380.62
598.552	46025.83
598.902	45489.85
599.252	44664.28
599.601	44798.91
599.951	44448.36
600.301	44435.66
600.65	43945.4
601	43577.07
601.349	43361.15
601.699	43063.94
602.048	42461.91
602.397	42868.35
602.747	41809.08
603.096	42022.45
603.445	41720.17
603.794	41308.65
604.143	40912.38
604.492	40660.9
604.841	40843.8
605.19	40323.05
605.539	39751.5
605.888	39634.65
606.237	39187.58
606.585	39177.41
606.934	38725.26
607.283	38925.93
607.631	38217.21
607.98	37983.51
608.328	37531.36
608.677	37762.51
609.025	36964.89
609.374	36563.53
609.722	36294.27
610.07	35829.41
610.418	35301.05
610.767	34953.04
611.115	34859.05
611.463	34643.13
611.811	34084.28
612.159	33581.32
612.507	33200.29
612.855	33426.37
613.202	32943.73
613.55	32491.57
613.898	32163.88
614.246	31632.98
614.593	31348.47
614.941	31264.65
615.288	30484.8
615.636	30103.77
615.983	29781.16
616.331	29273.12
616.678	28973.37
617.026	28983.53
617.373	28401.82
617.72	27703.26
618.067	27677.86
618.414	27461.94
618.761	27050.43
619.108	26732.9
619.455	26044.5
619.802	25818.43
620.149	25887.01
620.496	25599.97
620.843	25325.62
621.19	24726.13
621.536	24583.88
621.883	24017.41
622.23	23890.4
622.576	24052.98
622.923	22991.17
623.269	23260.43
623.616	22533.93
623.962	22206.24
624.308	22114.79
624.655	21797.27
625.001	21413.69
625.347	21172.37
625.693	20781.18
626.039	20771.02
626.385	20321.4
626.731	20349.34
627.077	20049.6
627.423	19889.56
627.769	19762.55
628.115	19112.26
628.46	19226.57
628.806	18619.46
629.152	18113.95
629.497	18253.67
629.843	17892.96
630.189	17791.35
630.534	17626.23
630.879	17280.76
631.225	17133.43
631.57	16760.02
631.915	16480.6
632.261	16249.44
632.606	16132.59
632.951	16089.4
633.296	15787.12
633.641	15505.15
633.986	15159.68
634.331	15091.1
634.676	14537.33
635.021	14491.61
635.365	14113.12
635.71	14148.68
636.055	13960.7
636.4	13678.74
636.744	13442.5
637.089	13279.93
637.433	13160.54
637.778	12883.65
638.122	12726.16
638.466	12406.09
638.811	12299.4
639.155	12401.01
639.499	11918.37
639.843	11732.93
640.188	11720.23
640.532	11494.15
640.876	11412.87
641.22	11237.59
641.564	10772.73
641.908	10854.02
642.251	10709.23
642.595	10572.06
642.939	10368.84
643.283	10551.73
643.626	10328.2
643.97	10064.01
644.313	9898.9
644.657	9782.05
645	9751.57
645.344	9690.6
645.687	9482.3
646.03	9423.88
646.374	9370.53
646.717	9131.75
647.06	8938.7
647.403	8793.91
647.746	8847.25
648.089	8641.49
648.432	8141.07
648.775	8374.77
649.118	8014.06
649.461	8298.56
649.804	7942.93
650.146	8097.89
650.489	7904.83
650.832	7724.48
651.174	7719.4
651.517	7475.53
651.859	7417.11
652.202	7503.48
652.544	7117.36
652.887	7145.31
653.229	6942.09
653.571	6944.63
653.913	6850.64
654.256	6810
654.598	6873.5
654.94	6543.28
655.282	6347.68
655.624	6629.64
655.966	6340.06
656.308	6291.79
656.649	6223.21
656.991	6129.22
657.333	6017.45
657.675	5862.5
658.016	5913.3
658.358	5936.16
658.699	5618.64
659.041	5669.44
659.382	5542.43
659.724	5471.31
660.065	5430.66
660.406	5430.66
660.748	5313.81
661.089	5240.15
661.43	5087.73
661.771	4965.8
662.112	5057.25
662.453	5257.93
662.794	4930.24
663.135	4823.55
663.476	4813.39
663.817	4767.67
664.157	4701.62
664.498	4678.76
664.839	4681.3
665.179	4523.8
665.52	4536.51
665.86	4417.12
666.201	4345.99
666.541	4305.35
666.882	4419.66
667.222	4320.59
667.562	4168.17
667.903	4102.13
668.243	4086.89
668.583	4038.62
668.923	3997.98
669.263	4013.22
669.603	3970.04
669.943	3835.41
670.283	3914.15
670.623	3817.63
670.963	3693.15
671.302	3665.21
671.642	3726.18
671.982	3703.32
672.321	3538.2
672.661	3446.75
673	3431.51
673.34	3482.32
673.679	3467.08
674.019	3469.62
674.358	3332.44
674.697	3345.15
675.036	3284.18
675.376	3301.96
675.715	3086.04
676.054	3149.55
676.393	3164.79
676.732	2992.06
677.071	2961.57
677.41	3075.88
677.748	3022.54
678.087	2984.43
678.426	2862.5
678.765	2847.26
679.103	2852.34
679.442	2842.18
679.78	2887.91
680.119	2644.05
680.457	2595.78
680.796	2623.72
681.134	2730.41
681.472	2514.5
681.811	2560.22
682.149	2608.48
682.487	2509.41
682.825	2496.71
683.163	2369.7
683.501	2514.5
683.839	2491.63
684.177	2423.05
684.515	2308.74
684.853	2270.63
685.191	2263.01
685.528	2250.31
685.866	2171.57
686.204	2174.11
686.541	2232.53
686.879	2161.41
687.216	2049.64
687.554	2186.81
687.891	2077.58
688.228	1978.51
688.566	2075.04
688.903	2039.47
689.24	2057.26
689.577	1856.58
689.914	1983.59
690.251	1991.21
690.588	1922.63
690.925	1841.34
691.262	1821.02
691.599	1828.64
691.936	1696.55
692.273	1828.64
692.609	1742.27
692.946	1757.51
693.282	1762.59
693.619	1696.55
693.956	1650.82
694.292	1734.65
694.628	1747.35
694.965	1638.12
695.301	1650.82
695.637	1612.72
695.974	1592.4
696.31	1508.57
696.646	1620.34
696.982	1577.16
697.318	1587.32
697.654	1485.71
697.99	1475.55
698.326	1561.91
698.662	1437.44
698.997	1457.77
699.333	1396.8
699.669	1396.8
700.004	1384.1
700.34	1480.63
700.675	1241.85
701.011	1445.06
701.346	1333.3
701.682	1335.84
702.017	1246.93
702.352	1351.08
702.688	1325.67
703.023	1320.59
703.358	1170.72
703.693	1236.77
704.028	1224.07
704.363	1201.2
704.698	1168.18
705.033	1168.18
705.368	1175.8
705.703	1170.72
706.037	1147.86
706.372	1168.18
706.707	1081.81
707.041	1053.87
707.376	1127.54
707.71	1061.49
708.045	1117.38
708.379	1043.71
708.714	1109.76
709.048	1015.77
709.382	1048.79
709.716	1051.33
710.051	952.26
710.385	1046.25
710.719	980.21
711.053	1041.17
711.387	977.67
711.721	992.91
712.055	985.29
712.388	987.83
712.722	937.02
713.056	1000.53
713.39	911.62
713.723	934.48
714.057	914.16
714.39	914.16
714.724	891.3
715.057	891.3
715.391	873.52
715.724	904
716.057	893.84
716.39	850.65
716.724	825.25
717.057	782.07
717.39	822.71
717.723	909.08
718.056	759.21
718.389	787.15
718.722	776.99
719.055	776.99
719.387	774.45
719.72	881.14
720.053	835.41
720.385	723.64
720.718	774.45
721.051	797.31
721.383	723.64
721.716	680.46
722.048	761.75
722.38	761.75
722.713	688.08
723.045	670.3
723.377	751.59
723.709	660.14
724.041	675.38
724.373	606.79
724.705	690.62
725.037	731.26
725.369	700.78
725.701	703.32
726.033	667.76
726.365	726.18
726.696	721.1
727.028	665.22
727.36	578.85
727.691	647.44
728.023	591.55
728.354	609.33
728.686	535.67
729.017	594.09
729.348	611.87
729.68	695.7
730.011	599.17
730.342	555.99
730.673	606.79
731.004	558.53
731.335	601.71
731.666	558.53
731.997	566.15
732.328	591.55
732.659	639.82
732.99	594.09
733.32	487.4
733.651	561.07
733.982	482.32
734.312	512.81
734.643	520.43
734.973	477.24
735.304	589.01
735.634	545.83
735.965	545.83
736.295	497.56
736.625	543.29
736.955	553.45
737.285	540.75
737.616	550.91
737.946	533.13
738.276	484.86
738.605	550.91
738.935	497.56
739.265	528.05
739.595	515.35
739.925	555.99
740.254	492.48
740.584	462
740.914	502.64
741.243	515.35
741.573	561.07
741.902	525.51
742.232	469.62
742.561	459.46
742.89	500.1
743.22	477.24
743.549	444.22
743.878	512.81
744.207	411.2
744.536	482.32
744.865	467.08
745.194	454.38
745.523	510.27
745.852	454.38
746.181	500.1
746.509	497.56
746.838	418.82
747.167	507.73
747.495	408.66
747.824	451.84
748.152	441.68
748.481	472.16
748.809	406.12
749.138	472.16
749.466	459.46
749.794	434.06
750.122	439.14
750.451	421.36
