Data from solis1d_750mA_gray_FLMS192441__1__16-06-11-871.txt Node

Date: Tue Sep 13 16:06:11 CEST 2022
User: Spectrometer
Spectrometer: FLMS19244
Trigger mode: 0
Integration Time (sec): 1.000000E-1
Scans to average: 1
Electric dark correction enabled: true
Nonlinearity correction enabled: false
Boxcar width: 0
XAxis mode: Wavelengths
Number of Pixels in Spectrum: 2048
>>>>>Begin Spectral Data<<<<<
338.974	-33.02
339.356	-33.02
339.738	-33.02
340.12	-73.67
340.502	-137.17
340.883	-121.93
341.265	-101.61
341.647	-96.53
342.029	-76.21
342.41	-30.48
342.792	-73.67
343.173	2.54
343.555	-55.88
343.936	10.16
344.318	22.86
344.699	45.72
345.08	38.1
345.462	50.8
345.843	124.47
346.224	78.75
346.605	182.9
346.986	203.22
347.368	175.27
347.749	139.71
348.13	132.09
348.51	154.95
348.891	215.92
349.272	221
349.653	228.62
350.034	256.56
350.414	302.29
350.795	317.53
351.176	365.79
351.556	320.07
351.937	302.29
352.317	320.07
352.698	307.37
353.078	378.49
353.459	289.58
353.839	304.83
354.219	299.75
354.599	348.01
354.98	327.69
355.36	314.99
355.74	322.61
356.12	320.07
356.5	317.53
356.88	408.97
357.26	363.25
357.64	320.07
358.02	350.55
358.399	398.81
358.779	368.33
359.159	370.87
359.539	365.79
359.918	365.79
360.298	312.45
360.677	342.93
361.057	381.03
361.436	271.8
361.816	287.04
362.195	254.02
362.574	330.23
362.954	370.87
363.333	304.83
363.712	261.64
364.091	271.8
364.47	299.75
364.849	375.95
365.228	332.77
365.607	325.15
365.986	320.07
366.365	279.42
366.744	312.45
367.123	248.94
367.501	378.49
367.88	375.95
368.259	264.18
368.637	325.15
369.016	289.58
369.394	363.25
369.773	297.21
370.151	342.93
370.53	312.45
370.908	274.34
371.286	228.62
371.665	256.56
372.043	284.5
372.421	274.34
372.799	312.45
373.177	340.39
373.555	276.88
373.933	302.29
374.311	292.12
374.689	375.95
375.067	320.07
375.445	337.85
375.823	340.39
376.2	299.75
376.578	261.64
376.956	294.66
377.333	312.45
377.711	340.39
378.088	264.18
378.466	314.99
378.843	317.53
379.22	335.31
379.598	294.66
379.975	342.93
380.352	398.81
380.73	281.96
381.107	393.73
381.484	332.77
381.861	314.99
382.238	297.21
382.615	314.99
382.992	345.47
383.369	284.5
383.746	292.12
384.122	251.48
384.499	307.37
384.876	373.41
385.252	302.29
385.629	386.11
386.006	294.66
386.382	327.69
386.759	330.23
387.135	370.87
387.512	297.21
387.888	337.85
388.264	312.45
388.641	345.47
389.017	309.91
389.393	297.21
389.769	312.45
390.145	309.91
390.521	312.45
390.897	248.94
391.273	287.04
391.649	325.15
392.025	320.07
392.401	391.19
392.777	386.11
393.152	358.17
393.528	307.37
393.904	274.34
394.279	350.55
394.655	271.8
395.03	383.57
395.406	363.25
395.781	327.69
396.157	340.39
396.532	375.95
396.907	325.15
397.283	238.78
397.658	342.93
398.033	309.91
398.408	368.33
398.783	271.8
399.158	416.6
399.533	340.39
399.908	370.87
400.283	297.21
400.658	269.26
401.033	307.37
401.407	340.39
401.782	248.94
402.157	337.85
402.531	330.23
402.906	281.96
403.28	309.91
403.655	264.18
404.029	251.48
404.404	345.47
404.778	309.91
405.153	294.66
405.527	287.04
405.901	350.55
406.275	332.77
406.649	350.55
407.023	337.85
407.397	363.25
407.771	350.55
408.145	335.31
408.519	284.5
408.893	368.33
409.267	340.39
409.641	330.23
410.015	317.53
410.388	398.81
410.762	368.33
411.136	335.31
411.509	401.35
411.883	312.45
412.256	408.97
412.63	383.57
413.003	414.06
413.376	360.71
413.75	375.95
414.123	408.97
414.496	421.68
414.869	381.03
415.242	360.71
415.615	368.33
415.988	439.46
416.361	436.92
416.734	442
417.107	462.32
417.48	464.86
417.853	454.7
418.226	480.1
418.598	523.28
418.971	492.8
419.344	487.72
419.716	472.48
420.089	566.47
420.461	609.65
420.834	548.69
421.206	530.9
421.578	716.34
421.951	624.89
422.323	657.92
422.695	683.32
423.067	749.36
423.439	756.98
423.812	848.43
424.184	828.11
424.556	850.97
424.928	919.56
425.299	939.88
425.671	1021.17
426.043	1107.53
426.415	1041.49
426.787	1168.5
427.158	1117.69
427.53	1198.98
427.902	1201.52
428.273	1341.23
428.645	1343.77
429.016	1582.55
429.387	1491.11
429.759	1684.16
430.13	1745.13
430.501	1724.81
430.873	1935.64
431.244	1991.53
431.615	2164.26
431.986	2189.67
432.357	2225.23
432.728	2601.18
433.099	2573.24
433.47	2745.97
433.841	2723.11
434.212	2883.14
434.583	3162.57
434.953	3137.17
435.324	3335.3
435.695	3533.44
436.065	3759.52
436.436	3924.63
436.806	4165.95
437.177	4244.7
437.547	4496.18
437.918	4773.06
438.288	4930.56
438.658	5174.42
439.028	5446.22
439.399	5542.75
439.769	5888.22
440.139	6078.73
440.509	6566.46
440.879	6830.64
441.249	7016.07
441.619	7244.69
441.989	7491.09
442.359	7831.48
442.728	7714.63
443.098	8032.16
443.468	8197.27
443.838	8522.42
444.207	8651.97
444.577	8812
444.946	8773.9
445.316	8794.22
445.685	8743.42
446.055	8865.35
446.424	8756.12
446.793	8641.81
447.163	8631.65
447.532	8540.2
447.901	8235.38
448.27	8331.9
448.639	7859.42
449.008	7717.17
449.377	7290.42
449.746	7112.6
450.115	6779.83
450.484	6574.08
450.853	6299.73
451.221	5939.02
451.59	5784.07
451.959	5403.04
452.327	5276.03
452.696	5006.76
453.065	4745.12
453.433	4483.48
453.801	4364.09
454.17	4168.49
454.538	4044.02
454.907	3751.9
455.275	3640.13
455.643	3495.34
456.011	3365.78
456.379	3269.26
456.747	3203.21
457.115	3142.25
457.483	3086.36
457.851	2994.91
458.219	2789.16
458.587	2842.5
458.955	2654.52
459.323	2718.03
459.69	2651.98
460.058	2535.13
460.426	2596.1
460.793	2486.87
461.161	2464.01
461.528	2430.99
461.896	2509.73
462.263	2265.87
462.631	2347.16
462.998	2342.08
463.365	2207.45
463.732	2105.84
464.1	2095.68
464.467	2110.92
464.834	1940.72
465.201	2024.55
465.568	1821.33
465.935	1928.02
466.302	1864.52
466.669	1790.85
467.035	1816.25
467.402	1719.73
467.769	1752.75
468.136	1671.46
468.502	1638.44
468.869	1549.53
469.235	1607.96
469.602	1549.53
469.968	1427.6
470.335	1470.78
470.701	1422.52
471.067	1399.66
471.434	1473.32
471.8	1320.91
472.166	1325.99
472.532	1419.98
472.898	1290.43
473.264	1323.45
473.63	1348.85
473.996	1315.83
474.362	1275.19
474.728	1353.93
475.094	1303.13
475.46	1244.71
475.825	1295.51
476.191	1259.95
476.557	1384.42
476.922	1242.17
477.288	1346.31
477.653	1285.35
478.019	1374.26
478.384	1298.05
478.749	1277.73
479.115	1300.59
479.48	1295.51
479.845	1242.17
480.21	1361.56
480.576	1275.19
480.941	1272.65
481.306	1254.87
481.671	1211.68
482.036	1298.05
482.401	1386.96
482.765	1359.01
483.13	1366.64
483.495	1353.93
483.86	1325.99
484.224	1320.91
484.589	1407.28
484.954	1315.83
485.318	1308.21
485.683	1498.73
486.047	1475.86
486.412	1554.61
486.776	1442.84
487.14	1544.45
487.504	1585.09
487.869	1562.23
488.233	1780.69
488.597	1668.92
488.961	1658.76
489.325	1867.06
489.689	1854.36
490.053	1988.99
490.417	1902.62
490.781	1978.83
491.145	2143.94
491.508	2270.95
491.872	2235.39
492.236	2243.01
492.599	2291.27
492.963	2400.5
493.327	2484.33
493.69	2613.88
494.054	2789.16
494.417	2778.99
494.78	2832.34
495.144	3048.26
495.507	3152.41
495.87	3215.91
496.233	3180.35
496.596	3485.17
496.959	3604.56
497.322	3706.17
497.685	3856.05
498.048	3878.91
498.411	4071.96
498.774	4277.72
499.137	4404.73
499.5	4587.63
499.862	4536.82
500.225	4760.36
500.588	4849.27
500.95	5090.59
501.313	5161.72
501.675	5370.01
502.038	5664.68
502.4	5672.3
502.762	5697.7
503.125	5992.37
503.487	6182.88
503.849	6360.7
504.211	6495.33
504.574	6797.61
504.936	6807.78
505.298	7026.23
505.66	7242.15
506.022	7562.22
506.383	7694.31
506.745	7770.52
507.107	8108.37
507.469	8108.37
507.831	8339.52
508.192	8436.05
508.554	8591.01
508.915	8989.82
509.277	8908.53
509.638	9241.3
510	9375.93
510.361	9612.17
510.723	9591.85
511.084	9683.3
511.445	9962.72
511.806	9942.4
512.167	10117.68
512.529	10188.8
512.89	10295.49
513.251	10572.37
513.612	10745.11
513.972	10943.25
514.333	10968.65
514.694	11037.23
515.055	11024.53
515.416	11227.75
515.776	11240.45
516.137	11430.97
516.498	11215.05
516.858	11596.08
517.219	11448.75
517.579	11819.62
517.94	11738.33
518.3	11801.84
518.66	11753.57
519.021	11872.96
519.381	12149.85
519.741	12180.33
520.101	12248.92
520.461	12203.19
520.821	12259.08
521.181	12386.09
521.541	12335.28
521.901	12599.47
522.261	12642.65
522.621	12756.96
522.981	12723.94
523.34	12698.53
523.7	12886.51
524.06	12551.2
524.419	12726.48
524.779	12622.33
525.138	12797.6
525.498	12759.5
525.857	12957.64
526.216	12944.93
526.576	13094.81
526.935	12909.37
527.294	12985.58
527.653	12967.8
528.013	12927.15
528.372	13031.3
528.731	12883.97
529.09	12789.98
529.449	12886.51
529.807	12800.14
530.166	13016.06
530.525	12962.72
530.884	12762.04
531.243	12983.04
531.601	12858.57
531.96	12774.74
532.318	13016.06
532.677	12988.12
533.035	12645.19
533.394	13046.54
533.752	12815.38
534.111	12952.55
534.469	13069.4
534.827	12909.37
535.185	12754.42
535.543	12962.72
535.902	13041.46
536.26	13023.68
536.618	12812.84
536.976	12779.82
537.334	12726.48
537.691	12828.08
538.049	12797.6
538.407	12800.14
538.765	12919.53
539.122	13031.3
539.48	12924.61
539.838	12873.81
540.195	12858.57
540.553	13143.07
540.91	12756.96
541.268	12998.28
541.625	12927.15
541.982	12944.93
542.34	12711.23
542.697	12838.25
543.054	12952.55
543.411	12922.07
543.768	12805.22
544.125	12749.34
544.482	12797.6
544.839	12904.29
545.196	12711.23
545.553	12810.3
545.91	13127.83
546.267	13127.83
546.623	12967.8
546.98	12734.1
547.337	12746.8
547.693	12718.86
548.05	12998.28
548.406	12952.55
548.763	12779.82
549.119	12777.28
549.475	12970.34
549.832	13003.36
550.188	13026.22
550.544	13031.3
550.9	12838.25
551.256	13051.62
551.612	12889.05
551.968	12988.12
552.324	12955.1
552.68	12863.65
553.036	12868.73
553.392	12965.26
553.748	12866.19
554.104	13099.89
554.459	12840.79
554.815	12914.45
555.17	13033.84
555.526	12891.59
555.882	12906.83
556.237	13137.99
556.592	12866.19
556.948	12828.08
557.303	12955.1
557.658	13130.37
558.014	13064.32
558.369	12998.28
558.724	13066.86
559.079	13064.32
559.434	13201.5
559.789	13061.78
560.144	13196.42
560.499	13267.54
560.854	13214.2
561.209	13303.1
561.563	13473.3
561.918	13254.84
562.273	13366.61
562.627	13259.92
562.982	13389.47
563.336	13353.91
563.691	13432.66
564.045	13508.86
564.4	13328.51
564.754	13315.81
565.108	13414.87
565.463	13272.62
565.817	13290.4
566.171	13320.89
566.525	13371.69
566.879	13496.16
567.233	13130.37
567.587	13277.7
567.941	13628.25
568.295	13196.42
568.649	13059.24
569.002	13206.58
569.356	13265
569.71	13445.36
570.064	13051.62
570.417	13140.53
570.771	13036.38
571.124	13193.88
571.478	13160.85
571.831	13036.38
572.184	13165.93
572.538	13237.06
572.891	12868.73
573.244	12993.2
573.597	12830.62
573.95	12904.29
574.304	12833.16
574.657	12802.68
575.01	12934.77
575.362	12716.31
575.715	12845.87
576.068	13104.97
576.421	12535.96
576.774	12617.25
577.126	12782.36
577.479	12703.61
577.832	12762.04
578.184	12655.35
578.537	12853.49
578.889	12439.43
579.242	12500.4
579.594	12368.31
579.946	12650.27
580.299	12373.39
580.651	12393.71
581.003	12510.56
581.355	12683.29
581.707	12495.32
582.059	12431.81
582.411	12330.2
582.763	12358.14
583.115	12332.74
583.467	12142.23
583.819	12299.72
584.171	12365.77
584.522	12139.69
584.874	12096.5
585.226	12281.94
585.577	12228.59
585.929	12119.36
586.28	12132.07
586.632	12071.1
586.983	12086.34
587.334	11857.72
587.686	11949.17
588.037	12109.2
588.388	11530.03
588.739	11745.95
589.09	11773.9
589.441	11677.37
589.792	11618.94
590.143	11466.53
590.494	11672.29
590.845	11522.41
591.196	11143.92
591.547	11385.24
591.897	11232.83
592.248	11090.58
592.599	11260.77
592.949	11131.22
593.3	10953.41
593.65	11014.37
594.001	10836.56
594.351	10818.77
594.702	10811.15
595.052	10468.22
595.402	10590.16
595.752	10455.52
596.102	10592.7
596.453	10254.85
596.803	10498.71
597.153	10331.05
597.503	10239.61
597.853	9977.96
598.202	10178.64
598.552	9772.21
598.902	9795.07
599.252	9988.12
599.601	9812.85
599.951	9703.62
600.301	9556.29
600.65	9807.77
601	9518.18
601.349	9449.6
601.699	9340.37
602.048	9200.66
602.397	9248.92
602.747	9038.08
603.096	9020.3
603.445	8944.1
603.794	8956.8
604.143	9198.12
604.492	8992.36
604.841	9104.13
605.19	8847.57
605.539	8900.91
605.888	8537.66
606.237	8679.91
606.585	8578.31
606.934	8316.66
607.283	8497.02
607.631	8161.71
607.98	8349.69
608.328	8126.15
608.677	8347.15
609.025	8237.92
609.374	8090.58
609.722	8016.92
610.07	7701.93
610.418	7615.56
610.767	7773.06
611.115	7643.51
611.463	7562.22
611.811	7425.05
612.159	7407.27
612.507	7292.96
612.855	7394.57
613.202	7267.55
613.55	7132.92
613.898	7008.45
614.246	6909.38
614.593	6975.43
614.941	6840.8
615.288	6525.81
615.636	6472.47
615.983	6723.95
616.331	6436.9
616.678	6475.01
617.026	6490.25
617.373	6215.91
617.72	6193.04
618.067	6132.08
618.414	6109.22
618.761	6086.35
619.108	5817.09
619.455	5725.64
619.802	5679.92
620.149	5616.41
620.496	5621.5
620.843	5517.35
621.19	5685
621.536	5641.82
621.883	5446.22
622.23	5474.16
622.576	5362.39
622.923	5232.84
623.269	5098.21
623.616	5016.92
623.962	5156.64
624.308	5090.59
624.655	4961.04
625.001	4917.86
625.347	4851.81
625.693	4846.73
626.039	4630.81
626.385	4783.22
626.731	4574.93
627.077	4658.75
627.423	4442.84
627.769	4338.69
628.115	4465.7
628.46	4280.26
628.806	4277.72
629.152	4239.62
629.497	4270.1
629.843	4084.67
630.189	4143.09
630.534	3975.44
630.879	4077.04
631.225	3965.28
631.57	3868.75
631.915	3805.24
632.261	3767.14
632.606	3756.98
632.951	3675.69
633.296	3800.16
633.641	3723.95
633.986	3607.1
634.331	3617.27
634.676	3393.73
635.021	3391.19
635.365	3342.92
635.71	3345.46
636.055	3203.21
636.4	3213.37
636.744	3297.2
637.089	3121.92
637.433	3091.44
637.778	3096.52
638.122	3071.12
638.466	2997.45
638.811	3025.4
639.155	2954.27
639.499	3002.53
639.843	2893.3
640.188	2959.35
640.532	2885.68
640.876	2758.67
641.22	2682.47
641.564	2677.39
641.908	2542.75
642.251	2547.84
642.595	2585.94
642.939	2481.79
643.283	2489.41
643.626	2649.44
643.97	2418.28
644.313	2464.01
644.657	2400.5
645	2339.54
645.344	2367.48
645.687	2288.73
646.03	2367.48
646.374	2278.57
646.717	2273.49
647.06	2171.88
647.403	2227.77
647.746	2202.37
648.089	2243.01
648.432	2215.07
648.775	2245.55
649.118	2100.76
649.461	1976.29
649.804	2149.02
650.146	2034.71
650.489	2014.39
650.832	2057.57
651.174	2052.49
651.517	1869.6
651.859	1897.54
652.202	1958.51
652.544	1930.56
652.887	1826.41
653.229	1790.85
653.571	1839.12
653.913	1778.15
654.256	1928.02
654.598	1783.23
654.94	1740.05
655.282	1729.89
655.624	1679.08
655.966	1676.54
656.308	1701.94
656.649	1668.92
656.991	1755.29
657.333	1602.88
657.675	1653.68
658.016	1590.17
658.358	1679.08
658.699	1605.42
659.041	1554.61
659.382	1524.13
659.724	1580.01
660.065	1526.67
660.406	1496.19
660.748	1470.78
661.089	1486.03
661.43	1407.28
661.771	1430.14
662.112	1409.82
662.453	1422.52
662.794	1338.69
663.135	1407.28
663.476	1341.23
663.817	1285.35
664.157	1303.13
664.498	1285.35
664.839	1331.07
665.179	1226.92
665.52	1239.62
665.86	1267.57
666.201	1254.87
666.541	1287.89
666.882	1259.95
667.222	1216.76
667.562	1259.95
667.903	1229.46
668.243	1188.82
668.583	1242.17
668.923	1214.22
669.263	1171.04
669.603	1155.8
669.943	1216.76
670.283	1069.43
670.623	1168.5
670.963	1140.56
671.302	1087.21
671.642	1082.13
671.982	1115.15
672.321	983.06
672.661	1054.19
673	1084.67
673.34	1061.81
673.679	1046.57
674.019	1051.65
674.358	970.36
674.697	985.6
675.036	1021.17
675.376	1049.11
675.715	970.36
676.054	1026.25
676.393	942.42
676.732	863.67
677.071	972.9
677.41	914.48
677.748	917.02
678.087	909.4
678.426	861.13
678.765	894.16
679.103	861.13
679.442	962.74
679.78	909.4
680.119	873.83
680.457	886.53
680.796	894.16
681.134	817.95
681.472	883.99
681.811	896.7
682.149	744.28
682.487	784.93
682.825	828.11
683.163	769.69
683.501	779.85
683.839	820.49
684.177	820.49
684.515	858.59
684.853	777.31
685.191	833.19
685.528	782.39
685.866	787.47
686.204	772.23
686.541	772.23
686.879	744.28
687.216	769.69
687.554	787.47
687.891	657.92
688.228	790.01
688.566	769.69
688.903	731.58
689.24	711.26
689.577	675.7
689.914	680.78
690.251	736.66
690.588	708.72
690.925	790.01
691.262	711.26
691.599	795.09
691.936	660.46
692.273	690.94
692.609	665.54
692.946	586.79
693.282	632.51
693.619	673.16
693.956	713.8
694.292	635.05
694.628	665.54
694.965	617.27
695.301	617.27
695.637	642.67
695.974	579.17
696.31	614.73
696.646	604.57
696.982	670.62
697.318	591.87
697.654	576.63
697.99	650.29
698.326	563.93
698.662	607.11
698.997	525.82
699.333	574.09
699.669	602.03
700.004	604.57
700.34	574.09
700.675	650.29
701.011	614.73
701.346	515.66
701.682	553.77
702.017	533.45
702.352	525.82
702.688	538.53
703.023	523.28
703.358	574.09
703.693	508.04
704.028	472.48
704.363	480.1
704.698	482.64
705.033	538.53
705.368	541.07
705.703	492.8
706.037	551.23
706.372	462.32
706.707	469.94
707.041	556.31
707.376	518.2
707.71	459.78
708.045	508.04
708.379	520.74
708.714	477.56
709.048	495.34
709.382	469.94
709.716	490.26
710.051	515.66
710.385	551.23
710.719	518.2
711.053	490.26
711.387	500.42
711.721	523.28
712.055	475.02
712.388	485.18
712.722	469.94
713.056	480.1
713.39	477.56
713.723	523.28
714.057	523.28
714.39	505.5
714.724	485.18
715.057	469.94
715.391	452.16
715.724	477.56
716.057	538.53
716.39	411.51
716.724	449.62
717.057	436.92
717.39	480.1
717.723	419.14
718.056	467.4
718.389	464.86
718.722	459.78
719.055	495.34
719.387	332.77
719.72	414.06
720.053	391.19
720.385	454.7
720.718	492.8
721.051	421.68
721.383	452.16
721.716	462.32
722.048	447.08
722.38	452.16
722.713	416.6
723.045	401.35
723.377	386.11
723.709	469.94
724.041	487.72
724.373	327.69
724.705	442
725.037	449.62
725.369	439.46
725.701	444.54
726.033	398.81
726.365	442
726.696	408.97
727.028	444.54
727.36	497.88
727.691	388.65
728.023	396.27
728.354	388.65
728.686	365.79
729.017	398.81
729.348	403.89
729.68	368.33
730.011	342.93
730.342	373.41
730.673	424.22
731.004	436.92
731.335	414.06
731.666	375.95
731.997	401.35
732.328	406.43
732.659	388.65
732.99	355.63
733.32	408.97
733.651	381.03
733.982	342.93
734.312	414.06
734.643	353.09
734.973	439.46
735.304	431.84
735.634	416.6
735.965	325.15
736.295	416.6
736.625	271.8
736.955	375.95
737.285	393.73
737.616	388.65
737.946	353.09
738.276	350.55
738.605	398.81
738.935	360.71
739.265	363.25
739.595	401.35
739.925	314.99
740.254	403.89
740.584	396.27
740.914	360.71
741.243	340.39
741.573	393.73
741.902	386.11
742.232	393.73
742.561	325.15
742.89	350.55
743.22	375.95
743.549	373.41
743.878	391.19
744.207	256.56
744.536	330.23
744.865	332.77
745.194	360.71
745.523	426.76
745.852	317.53
746.181	243.86
746.509	314.99
746.838	320.07
747.167	332.77
747.495	348.01
747.824	322.61
748.152	383.57
748.481	335.31
748.809	350.55
749.138	373.41
749.466	375.95
749.794	340.39
750.122	353.09
750.451	370.87
750.779	381.03
751.107	337.85
751.435	396.27
751.763	325.15
752.091	355.63
752.419	401.35
752.746	342.93
753.074	322.61
753.402	302.29
753.73	388.65
754.057	309.91
754.385	360.71
754.712	406.43
755.04	314.99
755.367	368.33
755.695	345.47
756.022	426.76
756.349	337.85
756.676	337.85
757.004	378.49
757.331	327.69
757.658	363.25
757.985	358.17
758.312	363.25
