Data from solis1d_750mA_black_FLMS192441__12__16-09-18-164.txt Node

Date: Tue Sep 13 16:09:18 CEST 2022
User: Spectrometer
Spectrometer: FLMS19244
Trigger mode: 0
Integration Time (sec): 1.000000E-1
Scans to average: 1
Electric dark correction enabled: true
Nonlinearity correction enabled: false
Boxcar width: 0
XAxis mode: Wavelengths
Number of Pixels in Spectrum: 2048
>>>>>Begin Spectral Data<<<<<
338.974	-9.37
339.356	-9.37
339.738	-9.37
340.12	-24.61
340.502	-90.65
340.883	-44.93
341.265	-34.77
341.647	-98.27
342.029	-83.03
342.41	-34.77
342.792	-22.07
343.173	-37.31
343.555	-39.85
343.936	43.98
344.318	-11.91
344.699	38.9
345.08	16.04
345.462	71.92
345.843	82.08
346.224	-6.83
346.605	160.83
346.986	206.55
347.368	209.09
347.749	158.29
348.13	183.69
348.51	196.39
348.891	209.09
349.272	242.11
349.653	313.24
350.034	249.73
350.414	320.86
350.795	272.6
351.176	338.64
351.556	267.52
351.937	328.48
352.317	308.16
352.698	328.48
353.078	346.26
353.459	346.26
353.839	325.94
354.219	356.42
354.599	336.1
354.98	305.62
355.36	402.15
355.74	315.78
356.12	351.34
356.5	341.18
356.88	386.91
357.26	292.92
357.64	346.26
358.02	287.84
358.399	292.92
358.779	320.86
359.159	303.08
359.539	234.49
359.918	325.94
360.298	257.36
360.677	282.76
361.057	384.37
361.436	290.38
361.816	331.02
362.195	300.54
362.574	292.92
362.954	303.08
363.333	242.11
363.712	298
364.091	262.44
364.47	298
364.849	292.92
365.228	353.88
365.607	249.73
365.986	267.52
366.365	331.02
366.744	282.76
367.123	318.32
367.501	287.84
367.88	346.26
368.259	338.64
368.637	257.36
369.016	366.58
369.394	295.46
369.773	285.3
370.151	320.86
370.53	391.99
370.908	280.22
371.286	331.02
371.665	351.34
372.043	358.96
372.421	353.88
372.799	369.12
373.177	389.45
373.555	343.72
373.933	366.58
374.311	480.89
374.689	483.43
375.067	442.79
375.445	475.81
375.823	498.68
376.2	610.45
376.578	628.23
376.956	658.71
377.333	679.03
377.711	717.13
378.088	717.13
378.466	734.92
378.843	795.88
379.22	938.13
379.598	902.57
379.975	933.05
380.352	945.75
380.73	859.39
381.107	894.95
381.484	973.7
381.861	1024.5
382.238	1072.76
382.615	1115.95
382.992	1204.86
383.369	1436.02
383.746	1415.69
384.122	1446.18
384.499	1568.11
384.876	1634.15
385.252	1636.69
385.629	1728.14
386.006	1662.09
386.382	1692.58
386.759	1791.65
387.135	1880.55
387.512	1809.43
387.888	1903.41
388.264	1842.45
388.641	1885.63
389.017	1987.24
389.393	1860.23
389.769	1961.84
390.145	1977.08
390.521	2005.02
390.897	1918.66
391.273	1987.24
391.649	1931.36
392.025	1913.58
392.401	1850.07
392.777	1949.14
393.152	1964.38
393.528	1723.06
393.904	1763.7
394.279	1814.51
394.655	1761.16
395.03	1723.06
395.406	1679.88
395.781	1679.88
396.157	1532.54
396.532	1560.49
396.907	1476.66
397.283	1606.21
397.658	1489.36
398.033	1466.5
398.408	1481.74
398.783	1428.39
399.158	1423.31
399.533	1359.81
399.908	1245.5
400.283	1242.96
400.658	1253.12
401.033	1220.1
401.407	1268.36
401.782	1161.67
402.157	1184.53
402.531	1108.33
402.906	1189.61
403.28	1095.63
403.655	1016.88
404.029	994.02
404.404	1052.44
404.778	1047.36
405.153	983.86
405.527	1067.68
405.901	983.86
406.275	953.37
406.649	915.27
407.023	953.37
407.397	849.23
407.771	872.09
408.145	892.41
408.519	869.55
408.893	856.85
409.267	887.33
409.641	755.24
410.015	780.64
410.388	917.81
410.762	874.63
411.136	849.23
411.509	859.39
411.883	800.96
412.256	783.18
412.63	808.58
413.003	760.32
413.376	719.67
413.75	806.04
414.123	712.05
414.496	689.19
414.869	709.51
415.242	750.16
415.615	656.17
415.988	640.93
416.361	750.16
416.734	679.03
417.107	612.99
417.48	582.5
417.853	579.96
418.226	694.27
418.598	618.07
418.971	585.04
419.344	656.17
419.716	620.61
420.089	610.45
420.461	653.63
420.834	577.42
421.206	618.07
421.578	620.61
421.951	691.73
422.323	620.61
422.695	587.58
423.067	643.47
423.439	600.28
423.812	635.85
424.184	600.28
424.556	628.23
424.928	534.24
425.299	615.53
425.671	602.82
426.043	549.48
426.415	577.42
426.787	511.38
427.158	582.5
427.53	529.16
427.902	529.16
428.273	572.34
428.645	508.84
429.016	508.84
429.387	508.84
429.759	534.24
430.13	559.64
430.501	468.19
430.873	468.19
431.244	493.6
431.615	506.3
431.986	534.24
432.357	452.95
432.728	661.25
433.099	516.46
433.47	480.89
433.841	460.57
434.212	430.09
434.583	483.43
434.953	475.81
435.324	503.76
435.695	519
436.065	554.56
436.436	506.3
436.806	425.01
437.177	465.65
437.547	422.47
437.918	501.22
438.288	435.17
438.658	425.01
439.028	409.77
439.399	460.57
439.769	417.39
440.139	440.25
440.509	435.17
440.879	376.75
441.249	432.63
441.619	437.71
441.989	351.34
442.359	430.09
442.728	417.39
443.098	389.45
443.468	366.58
443.838	480.89
444.207	473.27
444.577	452.95
444.946	437.71
445.316	463.11
445.685	371.67
446.055	389.45
446.424	414.85
446.793	361.5
447.163	404.69
447.532	399.61
447.901	386.91
448.27	394.53
448.639	450.41
449.008	414.85
449.377	376.75
449.746	386.91
450.115	399.61
450.484	386.91
450.853	404.69
451.221	376.75
451.59	402.15
451.959	452.95
452.327	346.26
452.696	419.93
453.065	442.79
453.433	374.21
453.801	384.37
454.17	371.67
454.538	432.63
454.907	364.04
455.275	369.12
455.643	379.29
456.011	511.38
456.379	374.21
456.747	364.04
457.115	488.52
457.483	407.23
457.851	463.11
458.219	389.45
458.587	394.53
458.955	386.91
459.323	391.99
459.69	389.45
460.058	361.5
460.426	323.4
460.793	386.91
461.161	374.21
461.528	386.91
461.896	379.29
462.263	364.04
462.631	412.31
462.998	353.88
463.365	386.91
463.732	366.58
464.1	348.8
464.467	328.48
464.834	369.12
465.201	402.15
465.568	366.58
465.935	432.63
466.302	331.02
466.669	397.07
467.035	399.61
467.402	386.91
467.769	379.29
468.136	430.09
468.502	412.31
468.869	331.02
469.235	432.63
469.602	417.39
469.968	391.99
470.335	333.56
470.701	328.48
471.067	440.25
471.434	305.62
471.8	379.29
472.166	338.64
472.532	381.83
472.898	442.79
473.264	325.94
473.63	310.7
473.996	397.07
474.362	353.88
474.728	353.88
475.094	386.91
475.46	369.12
475.825	320.86
476.191	394.53
476.557	308.16
476.922	397.07
477.288	376.75
477.653	318.32
478.019	384.37
478.384	422.47
478.749	412.31
479.115	346.26
479.48	386.91
479.845	374.21
480.21	364.04
480.576	369.12
480.941	447.87
481.306	391.99
481.671	364.04
482.036	369.12
482.401	356.42
482.765	412.31
483.13	323.4
483.495	419.93
483.86	351.34
484.224	397.07
484.589	333.56
484.954	358.96
485.318	356.42
485.683	384.37
486.047	397.07
486.412	409.77
486.776	295.46
487.14	295.46
487.504	338.64
487.869	381.83
488.233	356.42
488.597	412.31
488.961	407.23
489.325	463.11
489.689	318.32
490.053	442.79
490.417	440.25
490.781	422.47
491.145	419.93
491.508	341.18
491.872	394.53
492.236	366.58
492.599	369.12
492.963	356.42
493.327	343.72
493.69	353.88
494.054	402.15
494.417	391.99
494.78	325.94
495.144	394.53
495.507	425.01
495.87	369.12
496.233	374.21
496.596	315.78
496.959	430.09
497.322	369.12
497.685	386.91
498.048	389.45
498.411	417.39
498.774	376.75
499.137	366.58
499.5	397.07
499.862	381.83
500.225	341.18
500.588	407.23
500.95	437.71
501.313	447.87
501.675	379.29
502.038	379.29
502.4	412.31
502.762	336.1
503.125	412.31
503.487	422.47
503.849	412.31
504.211	394.53
504.574	376.75
504.936	364.04
505.298	328.48
505.66	353.88
506.022	394.53
506.383	341.18
506.745	394.53
507.107	320.86
507.469	384.37
507.831	369.12
508.192	358.96
508.554	364.04
508.915	338.64
509.277	308.16
509.638	381.83
510	331.02
510.361	348.8
510.723	391.99
511.084	315.78
511.445	353.88
511.806	399.61
512.167	320.86
512.529	338.64
512.89	371.67
513.251	399.61
513.612	346.26
513.972	353.88
514.333	366.58
514.694	394.53
515.055	361.5
515.416	432.63
515.776	399.61
516.137	407.23
516.498	343.72
516.858	374.21
517.219	394.53
517.579	341.18
517.94	366.58
518.3	343.72
518.66	323.4
519.021	358.96
519.381	379.29
519.741	437.71
520.101	277.68
520.461	338.64
520.821	295.46
521.181	356.42
521.541	371.67
521.901	300.54
522.261	371.67
522.621	397.07
522.981	331.02
523.34	379.29
523.7	358.96
524.06	399.61
524.419	391.99
524.779	348.8
525.138	376.75
525.498	412.31
525.857	417.39
526.216	374.21
526.576	351.34
526.935	351.34
527.294	379.29
527.653	376.75
528.013	364.04
528.372	374.21
528.731	384.37
529.09	371.67
529.449	397.07
529.807	348.8
530.166	430.09
530.525	338.64
530.884	374.21
531.243	356.42
531.601	463.11
531.96	356.42
532.318	356.42
532.677	333.56
533.035	381.83
533.394	384.37
533.752	412.31
534.111	356.42
534.469	384.37
534.827	379.29
535.185	399.61
535.543	379.29
535.902	351.34
536.26	389.45
536.618	397.07
536.976	422.47
537.334	407.23
537.691	328.48
538.049	305.62
538.407	320.86
538.765	348.8
539.122	442.79
539.48	366.58
539.838	417.39
540.195	394.53
540.553	320.86
540.91	328.48
541.268	356.42
541.625	432.63
541.982	399.61
542.34	384.37
542.697	356.42
543.054	290.38
543.411	399.61
543.768	315.78
544.125	333.56
544.482	351.34
544.839	343.72
545.196	371.67
545.553	310.7
545.91	399.61
546.267	348.8
546.623	384.37
546.98	308.16
547.337	328.48
547.693	371.67
548.05	341.18
548.406	369.12
548.763	351.34
549.119	407.23
549.475	455.49
549.832	353.88
550.188	346.26
550.544	379.29
550.9	325.94
551.256	409.77
551.612	282.76
551.968	341.18
552.324	366.58
552.68	397.07
553.036	331.02
553.392	394.53
553.748	348.8
554.104	386.91
554.459	361.5
554.815	425.01
555.17	313.24
555.526	361.5
555.882	366.58
556.237	364.04
556.592	364.04
556.948	389.45
557.303	369.12
557.658	351.34
558.014	303.08
558.369	338.64
558.724	325.94
559.079	402.15
559.434	328.48
559.789	328.48
560.144	331.02
560.499	315.78
560.854	364.04
561.209	458.03
561.563	310.7
561.918	318.32
562.273	391.99
562.627	389.45
562.982	397.07
563.336	353.88
563.691	336.1
564.045	343.72
564.4	351.34
564.754	259.9
565.108	379.29
565.463	371.67
565.817	298
566.171	343.72
566.525	257.36
566.879	351.34
567.233	374.21
567.587	391.99
567.941	353.88
568.295	381.83
568.649	409.77
569.002	328.48
569.356	419.93
569.71	379.29
570.064	369.12
570.417	325.94
570.771	290.38
571.124	412.31
571.478	310.7
571.831	386.91
572.184	331.02
572.538	369.12
572.891	318.32
573.244	364.04
573.597	427.55
573.95	348.8
574.304	346.26
574.657	325.94
575.01	333.56
575.362	376.75
575.715	351.34
576.068	371.67
576.421	346.26
576.774	369.12
577.126	346.26
577.479	313.24
577.832	404.69
578.184	361.5
578.537	386.91
578.889	366.58
579.242	379.29
579.594	348.8
579.946	374.21
580.299	386.91
580.651	300.54
581.003	391.99
581.355	371.67
581.707	303.08
582.059	397.07
582.411	394.53
582.763	328.48
583.115	323.4
583.467	379.29
583.819	351.34
584.171	364.04
584.522	315.78
584.874	358.96
585.226	305.62
585.577	369.12
585.929	328.48
586.28	325.94
586.632	325.94
586.983	315.78
587.334	452.95
587.686	325.94
588.037	361.5
588.388	346.26
588.739	361.5
589.09	399.61
589.441	331.02
589.792	358.96
590.143	331.02
590.494	338.64
590.845	336.1
591.196	419.93
591.547	366.58
591.897	252.28
592.248	351.34
592.599	315.78
592.949	386.91
593.3	341.18
593.65	282.76
594.001	343.72
594.351	351.34
594.702	351.34
595.052	369.12
595.402	374.21
595.752	379.29
596.102	348.8
596.453	369.12
596.803	325.94
597.153	287.84
597.503	376.75
597.853	366.58
598.202	376.75
598.552	331.02
598.902	356.42
599.252	331.02
599.601	356.42
599.951	336.1
600.301	404.69
600.65	407.23
601	313.24
601.349	376.75
601.699	356.42
602.048	374.21
602.397	331.02
602.747	358.96
603.096	331.02
603.445	417.39
603.794	425.01
604.143	298
604.492	442.79
604.841	384.37
605.19	422.47
605.539	384.37
605.888	351.34
606.237	308.16
606.585	353.88
606.934	379.29
607.283	369.12
607.631	292.92
607.98	361.5
608.328	353.88
608.677	376.75
609.025	376.75
609.374	384.37
609.722	374.21
610.07	369.12
610.418	351.34
610.767	351.34
611.115	338.64
611.463	369.12
611.811	366.58
612.159	318.32
612.507	282.76
612.855	397.07
613.202	351.34
613.55	381.83
613.898	417.39
614.246	353.88
614.593	346.26
614.941	333.56
615.288	313.24
615.636	295.46
615.983	318.32
616.331	356.42
616.678	318.32
617.026	323.4
617.373	386.91
617.72	300.54
618.067	331.02
618.414	320.86
618.761	313.24
619.108	397.07
619.455	379.29
619.802	323.4
620.149	338.64
620.496	384.37
620.843	336.1
621.19	351.34
621.536	323.4
621.883	290.38
622.23	318.32
622.576	325.94
622.923	333.56
623.269	353.88
623.616	369.12
623.962	346.26
624.308	341.18
624.655	318.32
625.001	414.85
625.347	376.75
625.693	310.7
626.039	338.64
626.385	371.67
626.731	358.96
627.077	275.14
627.423	384.37
627.769	280.22
628.115	308.16
628.46	325.94
628.806	336.1
629.152	313.24
629.497	308.16
629.843	346.26
630.189	275.14
630.534	371.67
630.879	338.64
631.225	300.54
631.57	275.14
631.915	381.83
632.261	414.85
632.606	264.98
632.951	328.48
633.296	325.94
633.641	318.32
633.986	358.96
634.331	336.1
634.676	320.86
635.021	351.34
635.365	366.58
635.71	300.54
636.055	315.78
636.4	287.84
636.744	298
637.089	320.86
637.433	353.88
637.778	366.58
638.122	295.46
638.466	371.67
638.811	419.93
639.155	358.96
639.499	366.58
639.843	412.31
640.188	252.28
640.532	336.1
640.876	346.26
641.22	351.34
641.564	394.53
641.908	313.24
642.251	376.75
642.595	366.58
642.939	384.37
643.283	374.21
643.626	430.09
643.97	341.18
644.313	336.1
644.657	358.96
645	348.8
645.344	331.02
645.687	419.93
646.03	361.5
646.374	351.34
646.717	391.99
647.06	389.45
647.403	315.78
647.746	298
648.089	353.88
648.432	338.64
648.775	351.34
649.118	417.39
649.461	254.82
649.804	358.96
650.146	386.91
650.489	343.72
650.832	325.94
651.174	381.83
651.517	361.5
651.859	386.91
652.202	323.4
652.544	336.1
652.887	348.8
653.229	343.72
653.571	386.91
653.913	252.28
654.256	407.23
654.598	295.46
654.94	389.45
655.282	325.94
655.624	328.48
655.966	341.18
656.308	285.3
656.649	366.58
656.991	310.7
657.333	356.42
657.675	303.08
658.016	366.58
658.358	310.7
658.699	379.29
659.041	391.99
659.382	292.92
659.724	381.83
660.065	358.96
660.406	351.34
660.748	323.4
661.089	353.88
661.43	358.96
661.771	386.91
662.112	333.56
662.453	308.16
662.794	343.72
663.135	422.47
663.476	264.98
663.817	313.24
664.157	290.38
664.498	353.88
664.839	333.56
665.179	325.94
665.52	298
665.86	369.12
666.201	389.45
666.541	338.64
666.882	371.67
667.222	244.65
667.562	366.58
667.903	361.5
668.243	331.02
668.583	308.16
668.923	315.78
669.263	407.23
669.603	353.88
669.943	384.37
670.283	315.78
670.623	391.99
670.963	351.34
671.302	292.92
671.642	343.72
671.982	376.75
672.321	272.6
672.661	267.52
673	369.12
673.34	338.64
673.679	361.5
674.019	323.4
674.358	356.42
674.697	371.67
675.036	320.86
675.376	384.37
675.715	430.09
676.054	341.18
676.393	379.29
676.732	358.96
677.071	348.8
677.41	376.75
677.748	394.53
678.087	310.7
678.426	361.5
678.765	305.62
679.103	341.18
679.442	379.29
679.78	313.24
680.119	348.8
680.457	310.7
680.796	369.12
681.134	346.26
681.472	369.12
681.811	300.54
682.149	323.4
682.487	331.02
682.825	397.07
683.163	336.1
683.501	333.56
683.839	298
684.177	364.04
684.515	315.78
684.853	361.5
685.191	308.16
685.528	407.23
685.866	389.45
686.204	336.1
686.541	333.56
686.879	376.75
687.216	386.91
687.554	386.91
687.891	275.14
688.228	338.64
688.566	320.86
688.903	386.91
689.24	346.26
689.577	356.42
689.914	315.78
690.251	369.12
690.588	315.78
690.925	331.02
691.262	320.86
691.599	275.14
691.936	366.58
692.273	407.23
692.609	328.48
692.946	414.85
693.282	376.75
693.619	371.67
693.956	336.1
694.292	290.38
694.628	343.72
694.965	285.3
695.301	343.72
695.637	341.18
695.974	338.64
696.31	282.76
696.646	361.5
696.982	318.32
697.318	374.21
697.654	320.86
697.99	343.72
698.326	369.12
698.662	386.91
698.997	323.4
699.333	338.64
699.669	308.16
700.004	402.15
700.34	407.23
700.675	272.6
701.011	346.26
701.346	305.62
701.682	379.29
702.017	371.67
702.352	374.21
702.688	300.54
703.023	361.5
703.358	270.06
703.693	323.4
704.028	425.01
704.363	333.56
704.698	343.72
705.033	374.21
705.368	399.61
705.703	338.64
706.037	328.48
706.372	313.24
706.707	384.37
707.041	341.18
707.376	310.7
707.71	290.38
708.045	348.8
708.379	328.48
708.714	343.72
709.048	328.48
709.382	358.96
709.716	336.1
710.051	366.58
710.385	313.24
710.719	361.5
711.053	371.67
711.387	320.86
711.721	280.22
712.055	364.04
712.388	323.4
712.722	358.96
713.056	308.16
713.39	318.32
713.723	298
714.057	308.16
714.39	305.62
714.724	341.18
715.057	290.38
715.391	346.26
715.724	366.58
716.057	351.34
716.39	333.56
716.724	333.56
717.057	397.07
717.39	300.54
717.723	369.12
718.056	308.16
718.389	298
718.722	209.09
719.055	343.72
719.387	320.86
719.72	402.15
720.053	285.3
720.385	298
720.718	379.29
721.051	282.76
721.383	323.4
721.716	351.34
722.048	295.46
722.38	346.26
722.713	323.4
723.045	348.8
723.377	292.92
723.709	295.46
724.041	336.1
724.373	369.12
724.705	442.79
725.037	338.64
725.369	351.34
725.701	346.26
726.033	376.75
726.365	369.12
726.696	346.26
727.028	303.08
727.36	336.1
727.691	305.62
728.023	346.26
728.354	325.94
728.686	358.96
729.017	376.75
729.348	336.1
729.68	285.3
730.011	320.86
730.342	320.86
730.673	336.1
731.004	356.42
731.335	432.63
731.666	389.45
731.997	328.48
732.328	351.34
732.659	315.78
732.99	328.48
733.32	351.34
733.651	336.1
733.982	323.4
734.312	417.39
734.643	351.34
734.973	353.88
735.304	356.42
735.634	323.4
735.965	351.34
736.295	394.53
736.625	353.88
736.955	381.83
737.285	318.32
737.616	328.48
737.946	303.08
738.276	338.64
738.605	333.56
738.935	381.83
739.265	290.38
739.595	292.92
739.925	381.83
740.254	404.69
740.584	364.04
740.914	313.24
741.243	348.8
741.573	318.32
741.902	358.96
742.232	343.72
742.561	323.4
742.89	331.02
743.22	371.67
743.549	386.91
743.878	272.6
744.207	313.24
744.536	308.16
744.865	328.48
745.194	351.34
745.523	353.88
745.852	308.16
746.181	381.83
746.509	305.62
746.838	353.88
747.167	333.56
747.495	300.54
747.824	313.24
748.152	381.83
748.481	338.64
748.809	277.68
749.138	338.64
749.466	338.64
749.794	318.32
750.122	356.42
750.451	381.83
750.779	356.42
751.107	422.47
751.435	320.86
751.763	391.99
752.091	369.12
752.419	290.38
752.746	338.64
753.074	292.92
753.402	313.24
753.73	366.58
754.057	267.52
754.385	432.63
754.712	318.32
755.04	394.53
755.367	371.67
755.695	325.94
756.022	409.77
756.349	264.98
756.676	374.21
757.004	394.53
757.331	331.02
757.658	325.94
757.985	341.18
758.312	287.84
758.639	303.08
758.966	358.96
759.292	356.42
759.619	333.56
759.946	295.46
760.273	348.8
760.599	381.83
760.926	300.54
761.252	277.68
761.579	320.86
761.905	402.15
762.232	389.45
762.558	414.85
762.884	381.83
763.21	338.64
763.537	348.8
763.863	285.3
764.189	226.87
764.515	318.32
764.841	325.94
765.167	351.34
765.493	305.62
765.818	397.07
766.144	305.62
766.47	341.18
766.796	333.56
767.121	412.31
767.447	331.02
767.772	249.73
768.098	358.96
768.423	333.56
768.749	313.24
769.074	374.21
769.399	323.4
769.725	320.86
770.05	323.4
770.375	343.72
770.7	328.48
771.025	379.29
771.35	313.24
771.675	374.21
772	303.08
772.325	376.75
772.649	310.7
772.974	384.37
773.299	298
773.624	358.96
773.948	417.39
774.273	348.8
774.597	323.4
774.922	290.38
775.246	336.1
775.57	300.54
775.895	432.63
776.219	338.64
776.543	313.24
776.867	391.99
777.191	374.21
