Data from solis1d_750mA_white_FLMS192441__2__16-05-24-478.txt Node

Date: Tue Sep 13 16:05:24 CEST 2022
User: Spectrometer
Spectrometer: FLMS19244
Trigger mode: 0
Integration Time (sec): 1.000000E-1
Scans to average: 1
Electric dark correction enabled: true
Nonlinearity correction enabled: false
Boxcar width: 0
XAxis mode: Wavelengths
Number of Pixels in Spectrum: 2048
>>>>>Begin Spectral Data<<<<<
338.974	27.15
339.356	27.15
339.738	27.15
340.12	-104.94
340.502	-31.28
340.883	-148.13
341.265	9.37
341.647	-102.4
342.029	-51.6
342.41	-69.38
342.792	-41.44
343.173	-28.74
343.555	-23.66
343.936	11.91
344.318	32.23
344.699	57.63
345.08	88.11
345.462	50.01
345.843	37.31
346.224	128.76
346.605	50.01
346.986	141.46
347.368	174.48
347.749	217.66
348.13	263.39
348.51	255.77
348.891	250.69
349.272	265.93
349.653	329.43
350.034	347.22
350.414	311.65
350.795	354.84
351.176	367.54
351.556	314.19
351.937	372.62
352.317	314.19
352.698	276.09
353.078	357.38
353.459	403.1
353.839	375.16
354.219	387.86
354.599	438.66
354.98	337.05
355.36	309.11
355.74	372.62
356.12	423.42
356.5	387.86
356.88	387.86
357.26	415.8
357.64	415.8
358.02	339.59
358.399	382.78
358.779	250.69
359.159	403.1
359.539	408.18
359.918	390.4
360.298	339.59
360.677	365
361.057	385.32
361.436	342.14
361.816	319.27
362.195	365
362.574	408.18
362.954	352.3
363.333	344.68
363.712	370.08
364.091	281.17
364.47	331.97
364.849	298.95
365.228	403.1
365.607	339.59
365.986	354.84
366.365	370.08
366.744	298.95
367.123	370.08
367.501	304.03
367.88	311.65
368.259	314.19
368.637	344.68
369.016	314.19
369.394	372.62
369.773	365
370.151	392.94
370.53	347.22
370.908	311.65
371.286	365
371.665	286.25
372.043	370.08
372.421	438.66
372.799	309.11
373.177	377.7
373.555	316.73
373.933	324.35
374.311	403.1
374.689	314.19
375.067	398.02
375.445	372.62
375.823	362.46
376.2	365
376.578	433.58
376.956	387.86
377.333	329.43
377.711	298.95
378.088	296.41
378.466	370.08
378.843	342.14
379.22	370.08
379.598	410.72
379.975	316.73
380.352	385.32
380.73	324.35
381.107	339.59
381.484	258.31
381.861	408.18
382.238	331.97
382.615	392.94
382.992	415.8
383.369	314.19
383.746	347.22
384.122	359.92
384.499	324.35
384.876	286.25
385.252	291.33
385.629	281.17
386.006	415.8
386.382	316.73
386.759	398.02
387.135	375.16
387.512	370.08
387.888	398.02
388.264	443.74
388.641	311.65
389.017	433.58
389.393	359.92
389.769	331.97
390.145	354.84
390.521	344.68
390.897	365
391.273	354.84
391.649	390.4
392.025	362.46
392.401	443.74
392.777	337.05
393.152	357.38
393.528	344.68
393.904	349.76
394.279	436.12
394.655	331.97
395.03	403.1
395.406	428.5
395.781	339.59
396.157	377.7
396.532	380.24
396.907	395.48
397.283	352.3
397.658	405.64
398.033	387.86
398.408	329.43
398.783	403.1
399.158	370.08
399.533	357.38
399.908	413.26
400.283	400.56
400.658	380.24
401.033	390.4
401.407	362.46
401.782	400.56
402.157	390.4
402.531	395.48
402.906	349.76
403.28	354.84
403.655	354.84
404.029	354.84
404.404	423.42
404.778	359.92
405.153	443.74
405.527	392.94
405.901	423.42
406.275	334.51
406.649	456.44
407.023	441.2
407.397	390.4
407.771	441.2
408.145	418.34
408.519	479.31
408.893	481.85
409.267	446.28
409.641	497.09
410.015	377.7
410.388	509.79
410.762	441.2
411.136	540.27
411.509	545.35
411.883	530.11
412.256	555.51
412.63	502.17
413.003	596.16
413.376	532.65
413.75	631.72
414.123	679.98
414.496	644.42
414.869	674.9
415.242	690.14
415.615	677.44
415.988	779.05
416.361	766.35
416.734	756.19
417.107	814.62
417.48	852.72
417.853	913.68
418.226	989.89
418.598	1055.94
418.971	1165.16
419.344	1170.25
419.716	1215.97
420.089	1243.91
420.461	1388.7
420.834	1442.05
421.206	1490.31
421.578	1685.91
421.951	1751.95
422.323	1863.72
422.695	1962.79
423.067	2178.71
423.439	2389.55
423.812	2529.26
424.184	2519.1
424.556	2740.1
424.928	2966.18
425.299	3105.89
425.671	3298.95
426.043	3502.16
426.415	3834.93
426.787	3974.64
427.158	4393.78
427.53	4607.16
427.902	4698.6
428.273	4876.42
428.645	5310.8
429.016	5430.19
429.387	6014.43
429.759	6588.52
430.13	6814.6
430.501	7081.32
430.873	7396.31
431.244	8069.47
431.615	8427.64
431.986	9042.37
432.357	9598.68
432.728	10076.24
433.099	10589.36
433.47	11191.39
433.841	11646.09
434.212	12136.35
434.583	13127.04
434.953	13774.79
435.324	14356.5
435.695	15344.64
436.065	16149.89
436.436	16873.85
436.806	17963.6
437.177	19165.13
437.547	19988.16
437.918	21286.21
438.288	22139.72
438.658	23229.47
439.028	24718.04
439.399	25805.25
439.769	27146.48
440.139	28624.89
440.509	28995.76
440.879	30207.44
441.249	31640.12
441.619	32961.03
441.989	34279.4
442.359	35242.15
442.728	36077.88
443.098	37469.91
443.468	38130.37
443.838	38386.93
444.207	39697.68
444.577	40119.36
444.946	40856.02
445.316	40302.25
445.685	40894.12
446.055	41021.13
446.424	40368.3
446.793	39872.96
447.163	39489.38
447.532	38351.37
447.901	37561.36
448.27	36768.81
448.639	35686.68
449.008	34297.19
449.377	33489.4
449.746	32529.2
450.115	31106.68
450.484	29442.84
450.853	28058.42
451.221	26663.84
451.59	25137.17
451.959	24156.65
452.327	23079.6
452.696	21875.54
453.065	20770.54
453.433	19718.89
453.801	18847.6
454.17	18156.66
454.538	17229.48
454.907	16345.49
455.275	15621.53
455.643	14953.45
456.011	14536.86
456.379	14163.44
456.747	13213.4
457.115	13167.68
457.483	12806.97
457.851	12166.83
458.219	12032.2
458.587	11577.5
458.955	11422.55
459.323	11171.07
459.69	10947.53
460.058	10528.4
460.426	10398.85
460.793	10294.7
461.161	10114.34
461.528	9885.72
461.896	9461.51
462.263	9276.07
462.631	9177
462.998	8925.52
463.365	8785.81
463.732	8323.49
464.1	8272.69
464.467	8033.91
464.834	7792.58
465.201	7675.74
465.568	7403.93
465.935	7144.83
466.302	7020.36
466.669	6758.72
467.035	6527.56
467.402	6446.27
467.769	6331.96
468.136	6240.51
468.502	6016.97
468.869	5775.65
469.235	5613.08
469.602	5605.46
469.968	5315.88
470.335	5514.01
470.701	5028.83
471.067	5115.2
471.434	4962.79
471.8	5021.21
472.166	4800.21
472.532	4950.08
472.898	4795.13
473.264	4708.76
473.63	4868.8
473.996	4744.33
474.362	4640.18
474.728	4548.73
475.094	4475.06
475.46	4660.5
475.825	4523.33
476.191	4759.57
476.557	4718.93
476.922	4596.99
477.288	4637.64
477.653	4599.54
478.019	4718.93
478.384	4693.52
478.749	4698.6
479.115	4729.09
479.48	4561.43
479.845	4541.11
480.21	4604.62
480.576	4586.83
480.941	4469.98
481.306	4513.17
481.671	4645.26
482.036	4706.22
482.401	4795.13
482.765	4873.88
483.13	4884.04
483.495	4848.48
483.86	4894.2
484.224	4919.6
484.589	5211.73
484.954	5013.59
485.318	5011.05
485.683	5293.01
486.047	5376.84
486.412	5514.01
486.776	5689.29
487.14	5712.15
487.504	5864.56
487.869	5829
488.233	6385.31
488.597	6530.1
488.961	6596.14
489.325	6758.72
489.689	7035.6
490.053	7528.4
490.417	7731.62
490.781	7749.4
491.145	8379.37
491.508	8574.97
491.872	8689.28
492.236	9110.96
492.599	9570.74
492.963	9865.4
493.327	10315.02
493.69	10731.61
494.054	11252.36
494.417	11549.56
494.78	12204.94
495.144	12499.6
495.507	13012.73
495.87	13579.19
496.233	14209.17
496.596	14831.52
496.959	15329.4
497.322	15936.51
497.685	16571.57
498.048	17049.13
498.411	18014.41
498.774	18207.47
499.137	19045.74
499.5	19886.55
499.862	20348.87
500.225	20943.28
500.588	21847.59
500.95	22627.44
501.313	23193.91
501.675	24110.92
502.038	24982.22
502.4	25683.32
502.762	26541.91
503.125	27682.47
503.487	28147.33
503.849	29044.02
504.211	29694.32
504.574	30931.4
504.936	31863.66
505.298	32709.55
505.66	32935.63
506.022	34368.31
506.383	35132.92
506.745	35392.02
507.107	36321.74
507.469	36791.68
507.831	38046.54
508.192	38981.34
508.554	39710.38
508.915	40800.14
509.277	41493.61
509.638	42237.9
510	43370.83
510.361	43520.71
510.723	44696.82
511.084	44900.04
511.445	45527.47
511.806	45992.33
512.167	47066.85
512.529	47158.29
512.89	47508.84
513.251	48705.28
513.612	48624
513.972	49154.9
514.333	50110.02
514.694	49944.91
515.055	50468.19
515.416	51123.57
515.776	51042.28
516.137	51738.3
516.498	52104.09
516.858	52187.92
517.219	52358.11
517.579	52916.96
517.94	53569.79
518.3	53493.59
518.66	53803.49
519.021	54082.92
519.381	53930.51
519.741	54743.37
520.101	54898.33
520.461	55027.88
520.821	55335.24
521.181	55563.86
521.541	55746.76
521.901	55845.83
522.261	55660.39
522.621	56272.58
522.981	56305.61
523.34	56635.83
523.7	56729.82
524.06	56953.36
524.419	56491.04
524.779	57128.64
525.138	57187.06
525.498	57237.86
525.857	56912.72
526.216	57148.96
526.576	57021.95
526.935	57476.65
527.294	57451.24
527.653	57456.32
528.013	57504.59
528.372	57583.33
528.731	57392.82
529.09	57364.88
529.449	57519.83
529.807	57550.31
530.166	57639.22
530.525	57006.71
530.884	57027.03
531.243	57623.98
531.601	57481.73
531.96	57199.76
532.318	57321.69
532.677	57047.35
533.035	57105.77
533.394	56816.19
533.752	57047.35
534.111	57016.87
534.469	56920.34
534.827	56592.65
535.185	56915.26
535.543	56712.04
535.902	56900.02
536.26	56577.41
536.618	57113.39
536.976	56554.55
537.334	56757.76
537.691	56948.28
538.049	56323.39
538.407	56887.32
538.765	56927.96
539.122	56806.03
539.48	56945.74
539.838	56892.4
540.195	56813.65
540.553	57148.96
540.91	57027.03
541.268	56544.39
541.625	56790.79
541.982	56803.49
542.34	56905.1
542.697	56595.19
543.054	56638.37
543.411	57131.18
543.768	57108.31
544.125	56935.58
544.482	56694.26
544.839	57004.17
545.196	56554.55
545.553	57006.71
545.91	56798.41
546.267	57067.67
546.623	56709.5
546.98	56592.65
547.337	57021.95
547.693	56816.19
548.05	56564.71
548.406	57176.9
548.763	56955.9
549.119	56612.97
549.475	56752.68
549.832	56607.89
550.188	56562.17
550.544	56778.09
550.9	56752.68
551.256	56930.5
551.612	56582.49
551.968	56600.27
552.324	56912.72
552.68	56864.45
553.036	56724.74
553.392	57113.39
553.748	56808.57
554.104	57181.98
554.459	56925.42
554.815	56915.26
555.17	56663.78
555.526	57568.09
555.882	57311.53
556.237	57072.75
556.592	56981.3
556.948	57717.97
557.303	57352.17
557.658	57474.1
558.014	57583.33
558.369	57781.47
558.724	57768.77
559.079	57728.13
559.434	57474.1
559.789	58081.22
560.144	57916.1
560.499	57824.65
560.854	57895.78
561.209	57844.98
561.563	57903.4
561.918	57857.68
562.273	58157.42
562.627	58147.26
562.982	58396.2
563.336	58546.08
563.691	58243.79
564.045	58449.55
564.4	58459.71
564.754	58680.71
565.108	58604.5
565.463	58350.48
565.817	58256.49
566.171	58485.11
566.525	58589.26
566.879	58358.1
567.233	58353.02
567.587	58185.36
567.941	58655.3
568.295	58157.42
568.649	58200.61
569.002	58538.45
569.356	58246.33
569.71	58474.95
570.064	57535.07
570.417	57898.32
570.771	58243.79
571.124	57677.32
571.478	57954.21
571.831	57352.17
572.184	57730.67
572.538	57837.36
572.891	57377.58
573.244	57194.68
573.597	57504.59
573.95	57596.04
574.304	56938.12
574.657	57573.17
575.01	57126.1
575.362	56712.04
575.715	56930.5
576.068	56722.2
576.421	56887.32
576.774	56633.29
577.126	56727.28
577.479	56526.6
577.832	56549.47
578.184	56498.66
578.537	56493.58
578.889	56333.55
579.242	56440.24
579.594	56061.75
579.946	56320.85
580.299	55840.75
580.651	56074.45
581.003	56132.87
581.355	55675.63
581.707	55556.24
582.059	55909.33
582.411	55340.32
582.763	55320
583.115	55650.23
583.467	55528.3
583.819	55320
584.171	55030.42
584.522	55157.43
584.874	55048.2
585.226	54723.05
585.577	54878.01
585.929	54408.07
586.28	54623.98
586.632	54436.01
586.983	54176.91
587.334	54519.84
587.686	53922.88
588.037	53539.31
588.388	53831.44
588.739	53341.18
589.09	53221.79
589.441	52665.48
589.792	52716.28
590.143	52248.88
590.494	52276.83
590.845	51999.94
591.196	51664.63
591.547	51263.28
591.897	51395.37
592.248	50607.9
592.599	50549.48
592.949	50442.79
593.3	50049.06
593.65	49464.81
594.001	49548.63
594.351	48951.68
594.702	49071.07
595.052	48542.71
595.402	48524.93
595.752	47643.47
596.102	47851.77
596.453	47303.09
596.803	46464.81
597.153	46739.16
597.503	46492.76
597.853	46027.9
598.202	45773.88
598.552	45639.24
598.902	45375.06
599.252	44930.52
599.601	44653.64
599.951	44536.79
600.301	43843.31
600.65	43868.71
601	43327.65
601.349	43447.04
601.699	42728.16
602.048	42911.05
602.397	42669.73
602.747	41986.42
603.096	42524.94
603.445	41564.74
603.794	41468.21
604.143	41130.36
604.492	40797.6
604.841	40467.37
605.19	40602
605.539	39690.06
605.888	39751.03
606.237	39334.43
606.585	38930.54
606.934	38552.05
607.283	38491.08
607.631	38028.76
607.98	37820.46
608.328	37472.45
608.677	37119.36
609.025	36845.02
609.374	36105.82
609.722	36021.99
610.07	36209.97
610.418	35463.14
610.767	35635.88
611.115	35104.97
611.463	34589.31
611.811	34353.07
612.159	33923.77
612.507	33497.02
612.855	33136.31
613.202	32638.43
613.55	31810.32
613.898	31833.18
614.246	31462.31
614.593	31327.67
614.941	30707.86
615.288	30390.34
615.636	29580.01
615.983	30085.51
616.331	28965.27
616.678	28909.39
617.026	28487.71
617.373	28472.47
617.72	27786.62
618.067	27743.43
618.414	27182.04
618.761	27164.26
619.108	26430.14
619.455	26529.21
619.802	26178.66
620.149	25673.16
620.496	24964.44
620.843	24951.74
621.19	24784.08
621.536	24436.07
621.883	24126.17
622.23	23783.24
622.576	23816.26
622.923	23529.22
623.269	22772.23
623.616	22525.83
623.962	22449.62
624.308	22558.85
624.655	21748.52
625.001	21334.47
625.347	20897.55
625.693	21123.63
626.039	20994.08
626.385	20361.57
626.731	20529.22
627.077	20097.39
627.423	19673.17
627.769	19871.31
628.115	18961.91
628.46	19071.14
628.806	18652
629.152	18758.69
629.497	18420.84
629.843	17920.42
630.189	17580.03
630.534	17618.14
630.879	17178.68
631.225	16980.54
631.57	17018.64
631.915	16563.95
632.261	16284.52
632.606	16022.88
632.951	15939.05
633.296	15695.19
633.641	15431.01
633.986	15103.32
634.331	14780.72
634.676	14620.68
635.021	14529.23
635.365	14549.56
635.71	14031.35
636.055	13929.74
636.4	13851
636.744	13221.02
637.089	13261.67
637.433	13261.67
637.778	12641.85
638.122	12682.5
638.466	12570.73
638.811	12408.16
639.155	11920.43
639.499	12006.8
639.843	12047.44
640.188	11666.41
640.532	11326.02
640.876	11158.37
641.22	11303.16
641.564	11074.54
641.908	10934.83
642.251	10612.22
642.595	10635.09
642.939	10561.42
643.283	10375.98
643.626	10457.27
643.97	10139.74
644.313	9936.53
644.657	10119.42
645	9613.92
645.344	9685.04
645.687	9522.47
646.03	9197.32
646.374	9237.97
646.717	9248.13
647.06	8907.74
647.403	8887.42
647.746	8801.05
648.089	8496.22
648.432	8450.5
648.775	8417.48
649.118	8224.42
649.461	8099.95
649.804	8150.76
650.146	7950.08
650.489	7746.86
650.832	7624.93
651.174	7718.92
651.517	7475.06
651.859	7538.56
652.202	7304.86
652.544	7142.29
652.887	7182.93
653.229	7081.32
653.571	6951.77
653.913	6992.42
654.256	6890.81
654.598	6560.58
654.94	6560.58
655.282	6453.89
655.624	6611.39
655.966	6382.77
656.308	6202.41
656.649	6222.73
656.991	6042.38
657.333	6212.57
657.675	5905.21
658.016	5856.94
658.358	5856.94
658.699	5750.25
659.041	5770.57
659.382	5574.98
659.724	5379.38
660.065	5613.08
660.406	5437.81
660.748	5275.23
661.089	5293.01
661.43	5160.92
661.771	5171.08
662.112	5077.1
662.453	5056.77
662.794	5122.82
663.135	4777.35
663.476	4833.23
663.817	4779.89
664.157	4774.81
664.498	4497.93
664.839	4553.81
665.179	4596.99
665.52	4642.72
665.86	4431.88
666.201	4368.38
666.541	4508.09
666.882	4226.12
667.222	4152.46
667.562	4365.84
667.903	4040.69
668.243	4190.56
668.583	4010.21
668.923	3941.62
669.263	4114.35
669.603	3926.38
669.943	3916.22
670.283	3809.53
670.623	3898.44
670.963	3791.75
671.302	3662.2
671.642	3728.24
671.982	3588.53
672.321	3631.71
672.661	3370.07
673	3458.98
673.34	3527.56
673.679	3420.88
674.019	3347.21
674.358	3311.65
674.697	3235.44
675.036	3151.61
675.376	3225.28
675.715	3118.59
676.054	3039.84
676.393	3103.35
676.732	3085.57
677.071	3057.62
677.41	2973.8
677.748	2928.07
678.087	2834.09
678.426	2818.84
678.765	2821.38
679.103	2889.97
679.442	2765.5
679.78	2816.3
680.119	2757.88
680.457	2666.43
680.796	2595.31
681.134	2572.44
681.472	2674.05
681.811	2529.26
682.149	2519.1
682.487	2473.38
682.825	2516.56
683.163	2414.95
683.501	2348.9
683.839	2338.74
684.177	2341.28
684.515	2285.4
684.853	2346.36
685.191	2293.02
685.528	2247.3
685.866	2295.56
686.204	2232.05
686.541	2201.57
686.879	2148.23
687.216	2028.84
687.554	2094.88
687.891	2056.78
688.228	2280.32
688.566	2026.3
688.903	1955.17
689.24	1957.71
689.577	1909.45
689.914	1965.33
690.251	1914.53
690.588	1934.85
690.925	1884.05
691.262	1886.59
691.599	1828.16
691.936	1838.32
692.273	1818
692.609	1757.03
692.946	1757.03
693.282	1820.54
693.619	1729.09
693.956	1734.17
694.292	1744.33
694.628	1688.45
694.965	1795.14
695.301	1668.13
695.637	1584.3
695.974	1630.02
696.31	1546.2
696.646	1513.17
696.982	1561.44
697.318	1566.52
697.654	1421.73
697.99	1551.28
698.326	1546.2
698.662	1472.53
698.997	1449.67
699.333	1398.86
699.669	1477.61
700.004	1322.66
700.34	1373.46
700.675	1391.24
701.011	1442.05
701.346	1396.32
701.682	1307.42
702.017	1353.14
702.352	1342.98
702.688	1317.58
703.023	1279.47
703.358	1289.64
703.693	1312.5
704.028	1251.53
704.363	1228.67
704.698	1221.05
705.033	1190.57
705.368	1190.57
705.703	1160.08
706.037	1180.41
706.372	1109.28
706.707	1155
707.041	1073.72
707.376	1215.97
707.71	1094.04
708.045	1063.56
708.379	1116.9
708.714	1142.3
709.048	1010.21
709.382	1015.29
709.716	1050.86
710.051	1038.15
710.385	1035.61
710.719	1015.29
711.053	1033.07
711.387	1025.45
711.721	1007.67
712.055	936.55
712.388	1038.15
712.722	944.17
713.056	926.38
713.39	875.58
713.723	814.62
714.057	941.63
714.39	931.46
714.724	890.82
715.057	855.26
715.391	916.22
715.724	847.64
716.057	923.84
716.39	893.36
716.724	763.81
717.057	834.94
717.39	837.48
717.723	804.45
718.056	799.37
718.389	748.57
718.722	753.65
719.055	822.24
719.387	758.73
719.72	812.07
720.053	700.31
720.385	713.01
720.718	682.52
721.051	771.43
721.383	728.25
721.716	748.57
722.048	728.25
722.38	697.77
722.713	707.93
723.045	690.14
723.377	659.66
723.709	649.5
724.041	725.71
724.373	720.63
724.705	697.77
725.037	682.52
725.369	779.05
725.701	710.47
726.033	682.52
726.365	654.58
726.696	672.36
727.028	669.82
727.36	743.49
727.691	596.16
728.023	598.7
728.354	652.04
728.686	667.28
729.017	586
729.348	624.1
729.68	550.43
730.011	662.2
730.342	624.1
730.673	634.26
731.004	613.94
731.335	616.48
731.666	570.75
731.997	583.46
732.328	583.46
732.659	583.46
732.99	552.97
733.32	550.43
733.651	619.02
733.982	578.38
734.312	527.57
734.643	532.65
734.973	575.83
735.304	519.95
735.634	591.08
735.965	560.59
736.295	532.65
736.625	563.13
736.955	494.55
737.285	504.71
737.616	509.79
737.946	502.17
738.276	512.33
738.605	558.05
738.935	583.46
739.265	509.79
739.595	425.96
739.925	461.53
740.254	499.63
740.584	471.69
740.914	514.87
741.243	494.55
741.573	476.77
741.902	545.35
742.232	481.85
742.561	446.28
742.89	410.72
743.22	494.55
743.549	512.33
743.878	542.81
744.207	474.23
744.536	476.77
744.865	431.04
745.194	507.25
745.523	436.12
745.852	497.09
746.181	458.99
746.509	390.4
746.838	418.34
747.167	519.95
747.495	448.82
747.824	423.42
748.152	395.48
748.481	423.42
748.809	443.74
749.138	458.99
749.466	497.09
749.794	428.5
750.122	425.96
750.451	456.44
750.779	474.23
751.107	489.47
