Data from solis1d_750mA_black_FLMS192441__2__16-06-39-770.txt Node

Date: Tue Sep 13 16:06:39 CEST 2022
User: Spectrometer
Spectrometer: FLMS19244
Trigger mode: 0
Integration Time (sec): 1.000000E-1
Scans to average: 1
Electric dark correction enabled: true
Nonlinearity correction enabled: false
Boxcar width: 0
XAxis mode: Wavelengths
Number of Pixels in Spectrum: 2048
>>>>>Begin Spectral Data<<<<<
338.974	-37.31
339.356	-37.31
339.738	-37.31
340.12	-55.09
340.502	-55.09
340.883	-85.57
341.265	-110.98
341.647	-128.76
342.029	-65.25
342.41	-65.25
342.792	26.2
343.173	-22.07
343.555	10.95
343.936	-19.53
344.318	21.12
344.699	21.12
345.08	38.9
345.462	64.3
345.843	43.98
346.224	140.51
346.605	130.34
346.986	115.1
347.368	188.77
347.749	117.64
348.13	201.47
348.51	226.87
348.891	148.13
349.272	193.85
349.653	234.49
350.034	165.91
350.414	219.25
350.795	183.69
351.176	298
351.556	262.44
351.937	315.78
352.317	305.62
352.698	318.32
353.078	310.7
353.459	257.36
353.839	262.44
354.219	262.44
354.599	310.7
354.98	336.1
355.36	239.57
355.74	343.72
356.12	404.69
356.5	376.75
356.88	358.96
357.26	290.38
357.64	287.84
358.02	313.24
358.399	369.12
358.779	244.65
359.159	270.06
359.539	341.18
359.918	303.08
360.298	331.02
360.677	333.56
361.057	346.26
361.436	295.46
361.816	333.56
362.195	366.58
362.574	353.88
362.954	287.84
363.333	328.48
363.712	272.6
364.091	353.88
364.47	287.84
364.849	285.3
365.228	234.49
365.607	231.95
365.986	303.08
366.365	295.46
366.744	298
367.123	292.92
367.501	231.95
367.88	308.16
368.259	287.84
368.637	310.7
369.016	282.76
369.394	277.68
369.773	275.14
370.151	270.06
370.53	249.73
370.908	226.87
371.286	244.65
371.665	272.6
372.043	259.9
372.421	295.46
372.799	331.02
373.177	308.16
373.555	308.16
373.933	264.98
374.311	358.96
374.689	239.57
375.067	264.98
375.445	280.22
375.823	338.64
376.2	259.9
376.578	305.62
376.956	292.92
377.333	346.26
377.711	310.7
378.088	275.14
378.466	292.92
378.843	298
379.22	303.08
379.598	315.78
379.975	343.72
380.352	277.68
380.73	290.38
381.107	242.11
381.484	287.84
381.861	231.95
382.238	224.33
382.615	320.86
382.992	298
383.369	290.38
383.746	287.84
384.122	287.84
384.499	315.78
384.876	325.94
385.252	234.49
385.629	336.1
386.006	275.14
386.382	358.96
386.759	389.45
387.135	338.64
387.512	277.68
387.888	328.48
388.264	336.1
388.641	356.42
389.017	346.26
389.393	280.22
389.769	320.86
390.145	242.11
390.521	287.84
390.897	277.68
391.273	325.94
391.649	285.3
392.025	237.03
392.401	320.86
392.777	325.94
393.152	313.24
393.528	333.56
393.904	310.7
394.279	270.06
394.655	323.4
395.03	303.08
395.406	323.4
395.781	331.02
396.157	270.06
396.532	242.11
396.907	323.4
397.283	262.44
397.658	305.62
398.033	295.46
398.408	298
398.783	338.64
399.158	338.64
399.533	298
399.908	262.44
400.283	310.7
400.658	315.78
401.033	341.18
401.407	254.82
401.782	323.4
402.157	315.78
402.531	252.28
402.906	239.57
403.28	282.76
403.655	343.72
404.029	282.76
404.404	231.95
404.778	341.18
405.153	292.92
405.527	292.92
405.901	277.68
406.275	247.19
406.649	315.78
407.023	333.56
407.397	313.24
407.771	229.41
408.145	315.78
408.519	338.64
408.893	323.4
409.267	313.24
409.641	275.14
410.015	318.32
410.388	407.23
410.762	257.36
411.136	343.72
411.509	277.68
411.883	351.34
412.256	333.56
412.63	239.57
413.003	272.6
413.376	290.38
413.75	290.38
414.123	328.48
414.496	315.78
414.869	267.52
415.242	285.3
415.615	275.14
415.988	275.14
416.361	338.64
416.734	325.94
417.107	323.4
417.48	308.16
417.853	394.53
418.226	366.58
418.598	399.61
418.971	242.11
419.344	315.78
419.716	292.92
420.089	298
420.461	270.06
420.834	298
421.206	333.56
421.578	384.37
421.951	280.22
422.323	325.94
422.695	275.14
423.067	267.52
423.439	262.44
423.812	371.67
424.184	384.37
424.556	374.21
424.928	259.9
425.299	369.12
425.671	361.5
426.043	298
426.415	318.32
426.787	341.18
427.158	432.63
427.53	381.83
427.902	366.58
428.273	447.87
428.645	407.23
429.016	376.75
429.387	478.35
429.759	384.37
430.13	409.77
430.501	348.8
430.873	409.77
431.244	379.29
431.615	419.93
431.986	498.68
432.357	508.84
432.728	595.2
433.099	463.11
433.47	488.52
433.841	485.97
434.212	480.89
434.583	534.24
434.953	513.92
435.324	531.7
435.695	572.34
436.065	508.84
436.436	549.48
436.806	519
437.177	534.24
437.547	574.88
437.918	663.79
438.288	587.58
438.658	607.91
439.028	671.41
439.399	686.65
439.769	676.49
440.139	648.55
440.509	638.39
440.879	724.76
441.249	762.86
441.619	737.46
441.989	851.77
442.359	856.85
442.728	894.95
443.098	922.89
443.468	818.74
443.838	877.17
444.207	905.11
444.577	851.77
444.946	892.41
445.316	935.59
445.685	915.27
446.055	872.09
446.424	902.57
446.793	922.89
447.163	912.73
447.532	892.41
447.901	811.12
448.27	806.04
448.639	882.25
449.008	826.36
449.377	836.52
449.746	760.32
450.115	793.34
450.484	719.67
450.853	691.73
451.221	635.85
451.59	694.27
451.959	719.67
452.327	623.15
452.696	679.03
453.065	661.25
453.433	585.04
453.801	552.02
454.17	585.04
454.538	582.5
454.907	511.38
455.275	574.88
455.643	524.08
456.011	513.92
456.379	508.84
456.747	554.56
457.115	519
457.483	493.6
457.851	463.11
458.219	435.17
458.587	549.48
458.955	531.7
459.323	519
459.69	437.71
460.058	419.93
460.426	480.89
460.793	427.55
461.161	440.25
461.528	541.86
461.896	417.39
462.263	407.23
462.631	409.77
462.998	473.27
463.365	442.79
463.732	470.73
464.1	450.41
464.467	437.71
464.834	371.67
465.201	458.03
465.568	417.39
465.935	402.15
466.302	379.29
466.669	407.23
467.035	430.09
467.402	328.48
467.769	391.99
468.136	442.79
468.502	496.14
468.869	320.86
469.235	452.95
469.602	402.15
469.968	351.34
470.335	353.88
470.701	320.86
471.067	336.1
471.434	346.26
471.8	381.83
472.166	470.73
472.532	376.75
472.898	419.93
473.264	394.53
473.63	422.47
473.996	452.95
474.362	364.04
474.728	422.47
475.094	308.16
475.46	402.15
475.825	366.58
476.191	389.45
476.557	336.1
476.922	351.34
477.288	371.67
477.653	425.01
478.019	331.02
478.384	313.24
478.749	371.67
479.115	386.91
479.48	440.25
479.845	391.99
480.21	333.56
480.576	432.63
480.941	389.45
481.306	447.87
481.671	356.42
482.036	318.32
482.401	402.15
482.765	483.43
483.13	348.8
483.495	425.01
483.86	366.58
484.224	391.99
484.589	427.55
484.954	427.55
485.318	430.09
485.683	399.61
486.047	422.47
486.412	374.21
486.776	414.85
487.14	427.55
487.504	427.55
487.869	432.63
488.233	430.09
488.597	430.09
488.961	450.41
489.325	450.41
489.689	417.39
490.053	371.67
490.417	427.55
490.781	427.55
491.145	402.15
491.508	455.49
491.872	488.52
492.236	531.7
492.599	419.93
492.963	371.67
493.327	511.38
493.69	425.01
494.054	437.71
494.417	529.16
494.78	478.35
495.144	498.68
495.507	491.06
495.87	506.3
496.233	465.65
496.596	526.62
496.959	521.54
497.322	574.88
497.685	628.23
498.048	592.66
498.411	506.3
498.774	585.04
499.137	625.69
499.5	612.99
499.862	625.69
500.225	572.34
500.588	640.93
500.95	620.61
501.313	615.53
501.675	630.77
502.038	671.41
502.4	750.16
502.762	653.63
503.125	696.81
503.487	740
503.849	704.43
504.211	734.92
504.574	752.7
504.936	742.54
505.298	740
505.66	676.49
506.022	788.26
506.383	760.32
506.745	831.44
507.107	846.69
507.469	813.66
507.831	737.46
508.192	877.17
508.554	922.89
508.915	823.82
509.277	958.45
509.638	879.71
510	920.35
510.361	943.21
510.723	973.7
511.084	884.79
511.445	991.48
511.806	950.83
512.167	988.94
512.529	887.33
512.89	983.86
513.251	986.4
513.612	935.59
513.972	976.24
514.333	991.48
514.694	983.86
515.055	988.94
515.416	1049.9
515.776	1004.18
516.137	1032.12
516.498	978.78
516.858	955.91
517.219	1011.8
517.579	1075.3
517.94	1098.17
518.3	1108.33
518.66	1004.18
519.021	1057.52
519.381	1126.11
519.741	1014.34
520.101	1126.11
520.461	1131.19
520.821	1054.98
521.181	1044.82
521.541	1075.3
521.901	1110.87
522.261	1067.68
522.621	1100.71
522.981	1085.47
523.34	1192.15
523.7	1042.28
524.06	1049.9
524.419	1072.76
524.779	1121.03
525.138	1082.93
525.498	1209.94
525.857	1103.25
526.216	1108.33
526.576	1011.8
526.935	1194.69
527.294	1181.99
527.653	1184.53
528.013	1131.19
528.372	1118.49
528.731	1093.09
529.09	1082.93
529.449	1169.29
529.807	1169.29
530.166	1161.67
530.525	1108.33
530.884	1088.01
531.243	1146.43
531.601	1110.87
531.96	1128.65
532.318	1100.71
532.677	1110.87
533.035	1070.22
533.394	1128.65
533.752	1039.74
534.111	1128.65
534.469	1128.65
534.827	1113.41
535.185	1126.11
535.543	1001.64
535.902	1171.83
536.26	1085.47
536.618	1164.21
536.976	1110.87
537.334	1113.41
537.691	1169.29
538.049	1141.35
538.407	1123.57
538.765	1072.76
539.122	1128.65
539.48	1105.79
539.838	1052.44
540.195	1037.2
540.553	1093.09
540.91	1054.98
541.268	1085.47
541.625	1113.41
541.982	1095.63
542.34	1072.76
542.697	1060.06
543.054	1110.87
543.411	1179.45
543.768	1100.71
544.125	1113.41
544.482	1103.25
544.839	1021.96
545.196	1136.27
545.553	1159.13
545.91	1164.21
546.267	1133.73
546.623	1098.17
546.98	1115.95
547.337	1095.63
547.693	1103.25
548.05	1072.76
548.406	1146.43
548.763	1095.63
549.119	1019.42
549.475	1194.69
549.832	1113.41
550.188	1004.18
550.544	1039.74
550.9	1108.33
551.256	1077.84
551.612	1143.89
551.968	1100.71
552.324	1108.33
552.68	1029.58
553.036	1146.43
553.392	1169.29
553.748	1123.57
554.104	1065.14
554.459	1164.21
554.815	1146.43
555.17	1075.3
555.526	1128.65
555.882	1207.4
556.237	1143.89
556.592	1136.27
556.948	1131.19
557.303	1085.47
557.658	1176.91
558.014	1108.33
558.369	1141.35
558.724	1108.33
559.079	1161.67
559.434	1100.71
559.789	994.02
560.144	1194.69
560.499	1039.74
560.854	1077.84
561.209	1306.46
561.563	1181.99
561.918	1174.37
562.273	1169.29
562.627	1227.72
562.982	1103.25
563.336	1179.45
563.691	1093.09
564.045	1176.91
564.4	1070.22
564.754	1128.65
565.108	1217.56
565.463	1123.57
565.817	1156.59
566.171	1220.1
566.525	1212.48
566.879	1136.27
567.233	1093.09
567.587	1121.03
567.941	1151.51
568.295	1123.57
568.649	1049.9
569.002	1113.41
569.356	1164.21
569.71	1098.17
570.064	1057.52
570.417	1189.61
570.771	1062.6
571.124	1052.44
571.478	1024.5
571.831	1156.59
572.184	1065.14
572.538	1169.29
572.891	1103.25
573.244	1151.51
573.597	1110.87
573.95	1029.58
574.304	1131.19
574.657	1123.57
575.01	1169.29
575.362	1093.09
575.715	1148.97
576.068	1052.44
576.421	1123.57
576.774	1161.67
577.126	1042.28
577.479	1105.79
577.832	1148.97
578.184	1159.13
578.537	1108.33
578.889	1067.68
579.242	1121.03
579.594	1095.63
579.946	1126.11
580.299	1080.39
580.651	1146.43
581.003	1098.17
581.355	1105.79
581.707	1141.35
582.059	1062.6
582.411	1049.9
582.763	1014.34
583.115	1039.74
583.467	1088.01
583.819	986.4
584.171	1154.05
584.522	1095.63
584.874	1072.76
585.226	1044.82
585.577	1065.14
585.929	1006.72
586.28	1100.71
586.632	1103.25
586.983	1075.3
587.334	1070.22
587.686	1049.9
588.037	1052.44
588.388	1032.12
588.739	1121.03
589.09	1098.17
589.441	1016.88
589.792	1077.84
590.143	1098.17
590.494	1088.01
590.845	988.94
591.196	1054.98
591.547	1039.74
591.897	1009.26
592.248	927.97
592.599	976.24
592.949	1034.66
593.3	1062.6
593.65	996.56
594.001	986.4
594.351	1075.3
594.702	978.78
595.052	1021.96
595.402	1029.58
595.752	902.57
596.102	988.94
596.453	1001.64
596.803	1027.04
597.153	935.59
597.503	953.37
597.853	1042.28
598.202	910.19
598.552	943.21
598.902	938.13
599.252	943.21
599.601	930.51
599.951	996.56
600.301	912.73
600.65	955.91
601	887.33
601.349	889.87
601.699	877.17
602.048	851.77
602.397	861.93
602.747	925.43
603.096	894.95
603.445	854.31
603.794	877.17
604.143	968.62
604.492	917.81
604.841	841.6
605.19	851.77
605.539	874.63
605.888	874.63
606.237	889.87
606.585	836.52
606.934	831.44
607.283	892.41
607.631	861.93
607.98	818.74
608.328	823.82
608.677	831.44
609.025	851.77
609.374	872.09
609.722	925.43
610.07	851.77
610.418	780.64
610.767	785.72
611.115	897.49
611.463	861.93
611.811	750.16
612.159	831.44
612.507	681.57
612.855	813.66
613.202	811.12
613.55	795.88
613.898	740
614.246	760.32
614.593	714.59
614.941	800.96
615.288	722.21
615.636	760.32
615.983	806.04
616.331	737.46
616.678	740
617.026	684.11
617.373	724.76
617.72	706.97
618.067	798.42
618.414	689.19
618.761	752.7
619.108	778.1
619.455	783.18
619.802	661.25
620.149	643.47
620.496	724.76
620.843	717.13
621.19	729.84
621.536	724.76
621.883	717.13
622.23	706.97
622.576	656.17
622.923	623.15
623.269	691.73
623.616	671.41
623.962	651.09
624.308	676.49
624.655	646.01
625.001	653.63
625.347	709.51
625.693	552.02
626.039	661.25
626.385	620.61
626.731	595.2
627.077	623.15
627.423	574.88
627.769	552.02
628.115	628.23
628.46	569.8
628.806	681.57
629.152	625.69
629.497	544.4
629.843	638.39
630.189	552.02
630.534	633.31
630.879	610.45
631.225	640.93
631.57	567.26
631.915	549.48
632.261	620.61
632.606	597.74
632.951	516.46
633.296	491.06
633.641	546.94
633.986	602.82
634.331	612.99
634.676	496.14
635.021	569.8
635.365	521.54
635.71	519
636.055	539.32
636.4	516.46
636.744	506.3
637.089	498.68
637.433	531.7
637.778	541.86
638.122	470.73
638.466	521.54
638.811	526.62
639.155	488.52
639.499	473.27
639.843	605.36
640.188	513.92
640.532	552.02
640.876	496.14
641.22	463.11
641.564	529.16
641.908	473.27
642.251	574.88
642.595	496.14
642.939	473.27
643.283	430.09
643.626	493.6
643.97	397.07
644.313	460.57
644.657	442.79
645	458.03
645.344	529.16
645.687	536.78
646.03	463.11
646.374	478.35
646.717	597.74
647.06	470.73
647.403	425.01
647.746	447.87
648.089	430.09
648.432	526.62
648.775	463.11
649.118	445.33
649.461	425.01
649.804	483.43
650.146	430.09
650.489	452.95
650.832	450.41
651.174	425.01
651.517	458.03
651.859	442.79
652.202	483.43
652.544	452.95
652.887	394.53
653.229	526.62
653.571	437.71
653.913	473.27
654.256	483.43
654.598	399.61
654.94	440.25
655.282	450.41
655.624	503.76
655.966	381.83
656.308	386.91
656.649	376.75
656.991	381.83
657.333	331.02
657.675	458.03
658.016	455.49
658.358	480.89
658.699	478.35
659.041	417.39
659.382	460.57
659.724	425.01
660.065	447.87
660.406	384.37
660.748	394.53
661.089	356.42
661.43	445.33
661.771	425.01
662.112	353.88
662.453	369.12
662.794	409.77
663.135	389.45
663.476	369.12
663.817	445.33
664.157	417.39
664.498	442.79
664.839	336.1
665.179	493.6
665.52	435.17
665.86	430.09
666.201	341.18
666.541	389.45
666.882	371.67
667.222	379.29
667.562	391.99
667.903	407.23
668.243	391.99
668.583	412.31
668.923	351.34
669.263	351.34
669.603	328.48
669.943	386.91
670.283	346.26
670.623	386.91
670.963	452.95
671.302	336.1
671.642	425.01
671.982	399.61
672.321	430.09
672.661	336.1
673	384.37
673.34	394.53
673.679	412.31
674.019	295.46
674.358	379.29
674.697	440.25
675.036	328.48
675.376	376.75
675.715	369.12
676.054	361.5
676.393	366.58
676.732	341.18
677.071	338.64
677.41	376.75
677.748	407.23
678.087	374.21
678.426	315.78
678.765	341.18
679.103	338.64
679.442	348.8
679.78	353.88
680.119	419.93
680.457	407.23
680.796	336.1
681.134	376.75
681.472	460.57
681.811	468.19
682.149	308.16
682.487	313.24
682.825	364.04
683.163	442.79
683.501	399.61
683.839	402.15
684.177	379.29
684.515	358.96
684.853	381.83
685.191	386.91
685.528	346.26
685.866	300.54
686.204	376.75
686.541	315.78
686.879	323.4
687.216	282.76
687.554	331.02
687.891	374.21
688.228	450.41
688.566	343.72
688.903	435.17
689.24	351.34
689.577	313.24
689.914	397.07
690.251	419.93
690.588	399.61
690.925	336.1
691.262	364.04
691.599	409.77
691.936	310.7
692.273	331.02
692.609	353.88
692.946	323.4
693.282	371.67
693.619	361.5
693.956	290.38
694.292	292.92
694.628	328.48
694.965	397.07
695.301	270.06
695.637	376.75
695.974	364.04
696.31	391.99
696.646	318.32
696.982	371.67
697.318	338.64
697.654	298
697.99	305.62
698.326	381.83
698.662	325.94
698.997	280.22
699.333	417.39
699.669	353.88
700.004	437.71
700.34	333.56
700.675	300.54
701.011	303.08
701.346	333.56
701.682	414.85
702.017	358.96
702.352	315.78
702.688	374.21
703.023	394.53
703.358	369.12
703.693	331.02
704.028	394.53
704.363	333.56
704.698	298
705.033	249.73
705.368	356.42
705.703	379.29
706.037	282.76
706.372	366.58
706.707	315.78
707.041	369.12
707.376	376.75
707.71	267.52
708.045	374.21
708.379	298
708.714	300.54
709.048	323.4
709.382	366.58
709.716	369.12
710.051	341.18
710.385	386.91
710.719	343.72
711.053	374.21
711.387	331.02
711.721	376.75
712.055	399.61
712.388	323.4
712.722	328.48
713.056	341.18
713.39	364.04
713.723	300.54
714.057	364.04
714.39	346.26
714.724	402.15
715.057	303.08
715.391	356.42
715.724	384.37
716.057	328.48
716.39	402.15
716.724	353.88
717.057	348.8
717.39	374.21
717.723	300.54
718.056	325.94
718.389	313.24
718.722	315.78
719.055	348.8
719.387	366.58
719.72	343.72
720.053	353.88
720.385	430.09
720.718	391.99
721.051	267.52
721.383	364.04
721.716	348.8
722.048	371.67
722.38	310.7
722.713	381.83
723.045	353.88
723.377	356.42
723.709	376.75
724.041	300.54
724.373	341.18
724.705	384.37
725.037	303.08
725.369	303.08
725.701	270.06
726.033	336.1
726.365	323.4
726.696	318.32
727.028	287.84
727.36	305.62
727.691	323.4
728.023	323.4
728.354	346.26
728.686	366.58
729.017	338.64
729.348	348.8
729.68	313.24
730.011	338.64
730.342	333.56
730.673	366.58
731.004	366.58
731.335	313.24
731.666	295.46
731.997	389.45
732.328	313.24
732.659	374.21
732.99	394.53
733.32	358.96
733.651	361.5
733.982	399.61
734.312	425.01
734.643	328.48
734.973	346.26
735.304	366.58
735.634	320.86
735.965	308.16
736.295	346.26
736.625	292.92
736.955	328.48
737.285	310.7
737.616	386.91
737.946	348.8
738.276	353.88
738.605	341.18
738.935	331.02
739.265	323.4
739.595	290.38
739.925	277.68
740.254	356.42
740.584	336.1
740.914	364.04
741.243	366.58
741.573	325.94
741.902	348.8
742.232	343.72
742.561	379.29
742.89	389.45
743.22	343.72
743.549	391.99
743.878	303.08
744.207	300.54
744.536	397.07
744.865	389.45
745.194	290.38
745.523	323.4
745.852	305.62
746.181	348.8
746.509	320.86
746.838	381.83
747.167	298
747.495	338.64
747.824	356.42
748.152	336.1
748.481	331.02
748.809	371.67
749.138	397.07
749.466	419.93
749.794	353.88
750.122	290.38
750.451	381.83
750.779	369.12
751.107	264.98
751.435	343.72
751.763	285.3
752.091	315.78
752.419	310.7
752.746	308.16
753.074	282.76
753.402	287.84
753.73	353.88
754.057	305.62
754.385	300.54
754.712	379.29
755.04	325.94
755.367	252.28
755.695	348.8
756.022	346.26
756.349	310.7
756.676	389.45
757.004	323.4
757.331	285.3
757.658	318.32
757.985	346.26
758.312	305.62
758.639	353.88
758.966	353.88
759.292	331.02
759.619	374.21
759.946	364.04
760.273	298
760.599	348.8
760.926	386.91
761.252	369.12
761.579	318.32
761.905	356.42
762.232	381.83
762.558	303.08
762.884	310.7
763.21	351.34
763.537	414.85
763.863	331.02
764.189	328.48
764.515	346.26
764.841	351.34
765.167	277.68
765.493	331.02
765.818	356.42
766.144	216.71
766.47	336.1
766.796	341.18
767.121	402.15
767.447	348.8
767.772	336.1
768.098	419.93
768.423	290.38
768.749	320.86
769.074	320.86
769.399	430.09
769.725	295.46
770.05	386.91
770.375	391.99
770.7	341.18
771.025	351.34
771.35	328.48
771.675	298
772	280.22
772.325	351.34
772.649	275.14
772.974	376.75
773.299	391.99
773.624	325.94
773.948	315.78
774.273	298
774.597	394.53
