Data from solis1d_750mA_black_FLMS192441__0__16-06-39-570.txt Node

Date: Tue Sep 13 16:06:39 CEST 2022
User: Spectrometer
Spectrometer: FLMS19244
Trigger mode: 0
Integration Time (sec): 1.000000E-1
Scans to average: 1
Electric dark correction enabled: true
Nonlinearity correction enabled: false
Boxcar width: 0
XAxis mode: Wavelengths
Number of Pixels in Spectrum: 2048
>>>>>Begin Spectral Data<<<<<
338.974	-83.67
339.356	-83.67
339.738	-83.67
340.12	-106.53
340.502	-45.57
340.883	-109.07
341.265	-76.05
341.647	-30.32
342.029	-53.19
342.41	-32.86
342.792	-76.05
343.173	-7.46
343.555	25.56
343.936	68.74
344.318	-2.38
344.699	58.58
345.08	0.16
345.462	28.1
345.843	73.82
346.224	38.26
346.605	94.15
346.986	137.33
347.368	43.34
347.749	157.65
348.13	211
348.51	198.3
348.891	195.76
349.272	137.33
349.653	200.84
350.034	236.4
350.414	246.56
350.795	279.58
351.176	287.2
351.556	266.88
351.937	289.74
352.317	208.46
352.698	287.2
353.078	238.94
353.459	386.27
353.839	322.77
354.219	348.17
354.599	264.34
354.98	277.04
355.36	355.79
355.74	256.72
356.12	315.15
356.5	330.39
356.88	325.31
357.26	223.7
357.64	310.06
358.02	269.42
358.399	292.28
358.779	304.98
359.159	289.74
359.539	292.28
359.918	373.57
360.298	292.28
360.677	315.15
361.057	312.61
361.436	312.61
361.816	266.88
362.195	266.88
362.574	284.66
362.954	271.96
363.333	256.72
363.712	259.26
364.091	330.39
364.47	299.9
364.849	307.52
365.228	259.26
365.607	282.12
365.986	271.96
366.365	256.72
366.744	254.18
367.123	266.88
367.501	292.28
367.88	282.12
368.259	264.34
368.637	310.06
369.016	193.22
369.394	241.48
369.773	211
370.151	259.26
370.53	195.76
370.908	315.15
371.286	317.69
371.665	292.28
372.043	287.2
372.421	208.46
372.799	325.31
373.177	284.66
373.555	302.44
373.933	238.94
374.311	297.36
374.689	325.31
375.067	233.86
375.445	266.88
375.823	266.88
376.2	264.34
376.578	259.26
376.956	289.74
377.333	355.79
377.711	304.98
378.088	350.71
378.466	277.04
378.843	297.36
379.22	274.5
379.598	304.98
379.975	307.52
380.352	310.06
380.73	274.5
381.107	233.86
381.484	259.26
381.861	249.1
382.238	287.2
382.615	269.42
382.992	233.86
383.369	256.72
383.746	322.77
384.122	320.23
384.499	282.12
384.876	304.98
385.252	315.15
385.629	251.64
386.006	338.01
386.382	261.8
386.759	249.1
387.135	350.71
387.512	256.72
387.888	249.1
388.264	312.61
388.641	277.04
389.017	231.32
389.393	218.62
389.769	282.12
390.145	277.04
390.521	299.9
390.897	332.93
391.273	246.56
391.649	302.44
392.025	218.62
392.401	327.85
392.777	348.17
393.152	315.15
393.528	256.72
393.904	332.93
394.279	330.39
394.655	325.31
395.03	320.23
395.406	203.38
395.781	277.04
396.157	271.96
396.532	340.55
396.907	312.61
397.283	238.94
397.658	249.1
398.033	307.52
398.408	317.69
398.783	271.96
399.158	312.61
399.533	322.77
399.908	330.39
400.283	228.78
400.658	292.28
401.033	358.33
401.407	277.04
401.782	251.64
402.157	378.65
402.531	236.4
402.906	238.94
403.28	228.78
403.655	338.01
404.029	289.74
404.404	269.42
404.778	256.72
405.153	277.04
405.527	259.26
405.901	302.44
406.275	338.01
406.649	345.63
407.023	330.39
407.397	388.81
407.771	307.52
408.145	238.94
408.519	289.74
408.893	343.09
409.267	244.02
409.641	274.5
410.015	343.09
410.388	322.77
410.762	261.8
411.136	299.9
411.509	304.98
411.883	322.77
412.256	271.96
412.63	332.93
413.003	363.41
413.376	335.47
413.75	271.96
414.123	307.52
414.496	322.77
414.869	307.52
415.242	340.55
415.615	393.89
415.988	340.55
416.361	332.93
416.734	284.66
417.107	338.01
417.48	307.52
417.853	378.65
418.226	292.28
418.598	335.47
418.971	294.82
419.344	360.87
419.716	315.15
420.089	332.93
420.461	401.51
420.834	396.43
421.206	322.77
421.578	335.47
421.951	322.77
422.323	348.17
422.695	376.11
423.067	317.69
423.439	345.63
423.812	353.25
424.184	355.79
424.556	340.55
424.928	355.79
425.299	335.47
425.671	378.65
426.043	371.03
426.415	327.85
426.787	371.03
427.158	350.71
427.53	320.23
427.902	343.09
428.273	416.75
428.645	343.09
429.016	465.02
429.387	444.7
429.759	358.33
430.13	416.75
430.501	419.29
430.873	414.21
431.244	470.1
431.615	371.03
431.986	437.08
432.357	513.28
432.728	612.35
433.099	396.43
433.47	505.66
433.841	477.72
434.212	388.81
434.583	564.09
434.953	589.49
435.324	576.79
435.695	487.88
436.065	574.25
436.436	510.74
436.806	553.93
437.177	566.63
437.547	630.13
437.918	551.39
438.288	518.36
438.658	663.15
439.028	612.35
439.399	696.18
439.769	721.58
440.139	660.61
440.509	680.94
440.879	741.9
441.249	769.84
441.619	736.82
441.989	777.46
442.359	746.98
442.728	848.59
443.098	840.97
443.468	825.73
443.838	846.05
444.207	866.37
444.577	876.53
444.946	835.89
445.316	828.27
445.685	848.59
446.055	924.8
446.424	884.15
446.793	868.91
447.163	912.1
447.532	886.69
447.901	838.43
448.27	848.59
448.639	744.44
449.008	810.49
449.377	792.71
449.746	724.12
450.115	724.12
450.484	706.34
450.853	719.04
451.221	655.53
451.59	670.78
451.959	609.81
452.327	612.35
452.696	586.95
453.065	576.79
453.433	619.97
453.801	599.65
454.17	574.25
454.538	510.74
454.907	576.79
455.275	569.17
455.643	543.76
456.011	546.3
456.379	482.8
456.747	454.86
457.115	513.28
457.483	531.06
457.851	546.3
458.219	439.62
458.587	531.06
458.955	480.26
459.323	447.24
459.69	449.78
460.058	477.72
460.426	579.33
460.793	457.4
461.161	508.2
461.528	360.87
461.896	355.79
462.263	442.16
462.631	432
462.998	457.4
463.365	490.42
463.732	508.2
464.1	414.21
464.467	449.78
464.834	482.8
465.201	432
465.568	426.91
465.935	454.86
466.302	406.59
466.669	434.54
467.035	439.62
467.402	421.83
467.769	465.02
468.136	381.19
468.502	434.54
468.869	381.19
469.235	424.37
469.602	439.62
469.968	353.25
470.335	409.13
470.701	404.05
471.067	383.73
471.434	365.95
471.8	358.33
472.166	396.43
472.532	363.41
472.898	429.46
473.264	381.19
473.63	350.71
473.996	442.16
474.362	398.97
474.728	396.43
475.094	388.81
475.46	348.17
475.825	373.57
476.191	376.11
476.557	350.71
476.922	401.51
477.288	360.87
477.653	358.33
478.019	442.16
478.384	398.97
478.749	388.81
479.115	332.93
479.48	340.55
479.845	409.13
480.21	355.79
480.576	335.47
480.941	393.89
481.306	277.04
481.671	391.35
482.036	365.95
482.401	355.79
482.765	348.17
483.13	335.47
483.495	404.05
483.86	345.63
484.224	350.71
484.589	426.91
484.954	391.35
485.318	327.85
485.683	345.63
486.047	393.89
486.412	376.11
486.776	424.37
487.14	371.03
487.504	355.79
487.869	353.25
488.233	416.75
488.597	338.01
488.961	439.62
489.325	472.64
489.689	398.97
490.053	447.24
490.417	381.19
490.781	426.91
491.145	404.05
491.508	437.08
491.872	462.48
492.236	429.46
492.599	426.91
492.963	388.81
493.327	386.27
493.69	515.82
494.054	452.32
494.417	503.12
494.78	487.88
495.144	513.28
495.507	505.66
495.87	505.66
496.233	541.22
496.596	513.28
496.959	541.22
497.322	490.42
497.685	556.47
498.048	523.44
498.411	515.82
498.774	564.09
499.137	589.49
499.5	612.35
499.862	581.87
500.225	602.19
500.588	668.24
500.95	609.81
501.313	686.02
501.675	650.45
502.038	691.1
502.4	612.35
502.762	691.1
503.125	668.24
503.487	686.02
503.849	711.42
504.211	691.1
504.574	757.14
504.936	652.99
505.298	698.72
505.66	736.82
506.022	792.71
506.383	825.73
506.745	777.46
507.107	846.05
507.469	815.57
507.831	924.8
508.192	838.43
508.554	795.25
508.915	818.11
509.277	873.99
509.638	843.51
510	891.77
510.361	924.8
510.723	861.29
511.084	833.35
511.445	894.31
511.806	901.93
512.167	924.8
512.529	1044.19
512.89	909.56
513.251	924.8
513.612	912.1
513.972	1072.13
514.333	1018.78
514.694	1054.35
515.055	970.52
515.416	973.06
515.776	1008.62
516.137	1026.41
516.498	1013.7
516.858	1018.78
517.219	1059.43
517.579	1122.93
517.94	1051.81
518.3	1054.35
518.66	1077.21
519.021	1046.73
519.381	1054.35
519.741	993.38
520.101	1013.7
520.461	1067.05
520.821	1031.49
521.181	1166.12
521.541	1064.51
521.901	1115.31
522.261	1163.58
522.621	973.06
522.981	1115.31
523.34	1079.75
523.7	1100.07
524.06	1100.07
524.419	1074.67
524.779	1074.67
525.138	1133.09
525.498	1112.77
525.857	1138.17
526.216	1110.23
526.576	1049.27
526.935	1089.91
527.294	1074.67
527.653	1087.37
528.013	1138.17
528.372	1097.53
528.731	1153.42
529.09	1186.44
529.449	1138.17
529.807	1092.45
530.166	1163.58
530.525	1115.31
530.884	1145.8
531.243	1077.21
531.601	1039.11
531.96	1079.75
532.318	1089.91
532.677	1181.36
533.035	1097.53
533.394	1143.26
533.752	1148.34
534.111	1097.53
534.469	1097.53
534.827	1163.58
535.185	1222
535.543	1082.29
535.902	1061.97
536.26	1138.17
536.618	1110.23
536.976	1178.82
537.334	1105.15
537.691	1084.83
538.049	1204.22
538.407	1168.66
538.765	1102.61
539.122	1110.23
539.48	1039.11
539.838	1130.55
540.195	1092.45
540.553	1125.47
540.91	1122.93
541.268	1138.17
541.625	1061.97
541.982	1074.67
542.34	1100.07
542.697	1079.75
543.054	1173.74
543.411	1110.23
543.768	1155.96
544.125	1143.26
544.482	1128.01
544.839	1120.39
545.196	1046.73
545.553	1089.91
545.91	1059.43
546.267	1077.21
546.623	1061.97
546.98	1067.05
547.337	1143.26
547.693	1117.85
548.05	1148.34
548.406	1059.43
548.763	1056.89
549.119	1120.39
549.475	1112.77
549.832	1102.61
550.188	1122.93
550.544	1097.53
550.9	1072.13
551.256	1125.47
551.612	1140.72
551.968	1176.28
552.324	1153.42
552.68	1049.27
553.036	1120.39
553.392	1122.93
553.748	1115.31
554.104	1044.19
554.459	1148.34
554.815	1092.45
555.17	1211.84
555.526	1201.68
555.882	1094.99
556.237	1128.01
556.592	1044.19
556.948	1092.45
557.303	1168.66
557.658	1120.39
558.014	1056.89
558.369	1100.07
558.724	993.38
559.079	1061.97
559.434	1082.29
559.789	1102.61
560.144	1102.61
560.499	1115.31
560.854	1150.88
561.209	1094.99
561.563	1181.36
561.918	1089.91
562.273	1110.23
562.627	1122.93
562.982	1079.75
563.336	1173.74
563.691	1163.58
564.045	1194.06
564.4	1140.72
564.754	1163.58
565.108	1206.76
565.463	1211.84
565.817	1150.88
566.171	1112.77
566.525	1140.72
566.879	1130.55
567.233	1168.66
567.587	1153.42
567.941	1064.51
568.295	1143.26
568.649	1148.34
569.002	1092.45
569.356	1049.27
569.71	1084.83
570.064	1130.55
570.417	1138.17
570.771	1155.96
571.124	1006.08
571.478	1105.15
571.831	1138.17
572.184	1107.69
572.538	1135.63
572.891	1133.09
573.244	1135.63
573.597	1087.37
573.95	1143.26
574.304	1145.8
574.657	1135.63
575.01	1140.72
575.362	1158.5
575.715	1120.39
576.068	1069.59
576.421	1181.36
576.774	1092.45
577.126	1117.85
577.479	1107.69
577.832	1077.21
578.184	1072.13
578.537	1115.31
578.889	980.68
579.242	1168.66
579.594	1128.01
579.946	1023.87
580.299	1074.67
580.651	1079.75
581.003	1097.53
581.355	1128.01
581.707	1115.31
582.059	1034.03
582.411	995.92
582.763	1087.37
583.115	1117.85
583.467	1069.59
583.819	1145.8
584.171	1072.13
584.522	975.6
584.874	1102.61
585.226	1001
585.577	1069.59
585.929	1079.75
586.28	1036.57
586.632	1100.07
586.983	1049.27
587.334	1158.5
587.686	1021.33
588.037	1026.41
588.388	1072.13
588.739	1077.21
589.09	1067.05
589.441	1069.59
589.792	995.92
590.143	1064.51
590.494	1016.24
590.845	975.6
591.196	1001
591.547	1046.73
591.897	1008.62
592.248	980.68
592.599	929.88
592.949	1013.7
593.3	1011.16
593.65	1087.37
594.001	998.46
594.351	993.38
594.702	1023.87
595.052	942.58
595.402	934.96
595.752	1011.16
596.102	978.14
596.453	1008.62
596.803	973.06
597.153	955.28
597.503	973.06
597.853	1036.57
598.202	950.2
598.552	952.74
598.902	940.04
599.252	973.06
599.601	919.72
599.951	922.26
600.301	886.69
600.65	917.18
601	901.93
601.349	978.14
601.699	927.34
602.048	868.91
602.397	955.28
602.747	876.53
603.096	884.15
603.445	909.56
603.794	896.85
604.143	889.23
604.492	899.39
604.841	858.75
605.19	937.5
605.539	884.15
605.888	917.18
606.237	871.45
606.585	988.3
606.934	879.07
607.283	828.27
607.631	818.11
607.98	846.05
608.328	843.51
608.677	912.1
609.025	820.65
609.374	790.17
609.722	696.18
610.07	807.95
610.418	759.68
610.767	856.21
611.115	866.37
611.463	840.97
611.811	856.21
612.159	861.29
612.507	731.74
612.855	823.19
613.202	835.89
613.55	762.22
613.898	825.73
614.246	746.98
614.593	823.19
614.941	746.98
615.288	670.78
615.636	762.22
615.983	744.44
616.331	706.34
616.678	703.8
617.026	741.9
617.373	757.14
617.72	746.98
618.067	729.2
618.414	660.61
618.761	619.97
619.108	607.27
619.455	607.27
619.802	642.83
620.149	680.94
620.496	665.7
620.843	673.32
621.19	658.07
621.536	716.5
621.883	630.13
622.23	688.56
622.576	589.49
622.923	703.8
623.269	688.56
623.616	619.97
623.962	663.15
624.308	533.6
624.655	686.02
625.001	617.43
625.347	670.78
625.693	670.78
626.039	652.99
626.385	642.83
626.731	607.27
627.077	640.29
627.423	594.57
627.769	619.97
628.115	614.89
628.46	607.27
628.806	599.65
629.152	627.59
629.497	584.41
629.843	576.79
630.189	520.9
630.534	574.25
630.879	556.47
631.225	536.14
631.57	505.66
631.915	614.89
632.261	581.87
632.606	571.71
632.951	561.55
633.296	592.03
633.641	490.42
633.986	533.6
634.331	579.33
634.676	543.76
635.021	518.36
635.365	609.81
635.71	592.03
636.055	472.64
636.4	515.82
636.744	452.32
637.089	492.96
637.433	477.72
637.778	520.9
638.122	485.34
638.466	434.54
638.811	470.1
639.155	482.8
639.499	452.32
639.843	480.26
640.188	500.58
640.532	477.72
640.876	485.34
641.22	515.82
641.564	518.36
641.908	513.28
642.251	487.88
642.595	551.39
642.939	495.5
643.283	457.4
643.626	419.29
643.97	487.88
644.313	477.72
644.657	454.86
645	477.72
645.344	416.75
645.687	421.83
646.03	406.59
646.374	424.37
646.717	533.6
647.06	421.83
647.403	465.02
647.746	487.88
648.089	490.42
648.432	459.94
648.775	561.55
649.118	454.86
649.461	452.32
649.804	487.88
650.146	452.32
650.489	452.32
650.832	465.02
651.174	475.18
651.517	416.75
651.859	434.54
652.202	439.62
652.544	414.21
652.887	444.7
653.229	462.48
653.571	373.57
653.913	437.08
654.256	485.34
654.598	429.46
654.94	454.86
655.282	409.13
655.624	416.75
655.966	449.78
656.308	411.67
656.649	317.69
656.991	355.79
657.333	350.71
657.675	432
658.016	383.73
658.358	406.59
658.699	442.16
659.041	358.33
659.382	414.21
659.724	409.13
660.065	416.75
660.406	373.57
660.748	294.82
661.089	343.09
661.43	345.63
661.771	401.51
662.112	429.46
662.453	437.08
662.794	388.81
663.135	381.19
663.476	348.17
663.817	416.75
664.157	381.19
664.498	340.55
664.839	393.89
665.179	396.43
665.52	406.59
665.86	388.81
666.201	454.86
666.541	398.97
666.882	416.75
667.222	467.56
667.562	411.67
667.903	343.09
668.243	371.03
668.583	355.79
668.923	406.59
669.263	378.65
669.603	368.49
669.943	353.25
670.283	457.4
670.623	365.95
670.963	391.35
671.302	401.51
671.642	424.37
671.982	315.15
672.321	325.31
672.661	368.49
673	327.85
673.34	449.78
673.679	437.08
674.019	371.03
674.358	381.19
674.697	304.98
675.036	304.98
675.376	386.27
675.715	327.85
676.054	277.04
676.393	335.47
676.732	447.24
677.071	360.87
677.41	437.08
677.748	381.19
678.087	360.87
678.426	340.55
678.765	388.81
679.103	396.43
679.442	327.85
679.78	358.33
680.119	338.01
680.457	381.19
680.796	381.19
681.134	330.39
681.472	325.31
681.811	396.43
682.149	312.61
682.487	368.49
682.825	459.94
683.163	401.51
683.501	391.35
683.839	312.61
684.177	279.58
684.515	487.88
684.853	434.54
685.191	368.49
685.528	353.25
685.866	338.01
686.204	355.79
686.541	348.17
686.879	294.82
687.216	383.73
687.554	401.51
687.891	376.11
688.228	376.11
688.566	315.15
688.903	348.17
689.24	358.33
689.577	360.87
689.914	320.23
690.251	360.87
690.588	340.55
690.925	325.31
691.262	297.36
691.599	353.25
691.936	307.52
692.273	424.37
692.609	325.31
692.946	315.15
693.282	327.85
693.619	350.71
693.956	439.62
694.292	320.23
694.628	365.95
694.965	284.66
695.301	363.41
695.637	416.75
695.974	338.01
696.31	320.23
696.646	350.71
696.982	368.49
697.318	335.47
697.654	396.43
697.99	404.05
698.326	338.01
698.662	345.63
698.997	269.42
699.333	289.74
699.669	368.49
700.004	376.11
700.34	350.71
700.675	297.36
701.011	277.04
701.346	360.87
701.682	325.31
702.017	327.85
702.352	310.06
702.688	299.9
703.023	363.41
703.358	289.74
703.693	330.39
704.028	409.13
704.363	312.61
704.698	358.33
705.033	277.04
705.368	368.49
705.703	411.67
706.037	312.61
706.372	411.67
706.707	244.02
707.041	340.55
707.376	338.01
707.71	353.25
708.045	353.25
708.379	340.55
708.714	353.25
709.048	299.9
709.382	322.77
709.716	292.28
710.051	327.85
710.385	317.69
710.719	343.09
711.053	404.05
711.387	327.85
711.721	371.03
712.055	325.31
712.388	343.09
712.722	297.36
713.056	304.98
713.39	348.17
713.723	284.66
714.057	368.49
714.39	340.55
714.724	345.63
715.057	335.47
715.391	289.74
715.724	335.47
716.057	343.09
716.39	381.19
716.724	411.67
717.057	373.57
717.39	355.79
717.723	307.52
718.056	292.28
718.389	378.65
718.722	322.77
719.055	310.06
719.387	335.47
719.72	317.69
720.053	233.86
720.385	312.61
720.718	297.36
721.051	340.55
721.383	310.06
721.716	315.15
722.048	312.61
722.38	340.55
722.713	292.28
723.045	312.61
723.377	335.47
723.709	383.73
724.041	317.69
724.373	251.64
724.705	348.17
725.037	315.15
725.369	322.77
725.701	371.03
726.033	378.65
726.365	289.74
726.696	371.03
727.028	297.36
727.36	338.01
727.691	284.66
728.023	292.28
728.354	317.69
728.686	299.9
729.017	289.74
729.348	259.26
729.68	271.96
730.011	284.66
730.342	292.28
730.673	246.56
731.004	343.09
731.335	327.85
731.666	335.47
731.997	398.97
732.328	310.06
732.659	302.44
732.99	294.82
733.32	279.58
733.651	320.23
733.982	261.8
734.312	292.28
734.643	335.47
734.973	246.56
735.304	348.17
735.634	373.57
735.965	216.08
736.295	350.71
736.625	284.66
736.955	218.62
737.285	327.85
737.616	340.55
737.946	348.17
738.276	325.31
738.605	236.4
738.935	340.55
739.265	307.52
739.595	386.27
739.925	426.91
740.254	289.74
740.584	332.93
740.914	259.26
741.243	325.31
741.573	391.35
741.902	317.69
742.232	338.01
742.561	277.04
742.89	335.47
743.22	241.48
743.549	294.82
743.878	345.63
744.207	304.98
744.536	294.82
744.865	358.33
745.194	376.11
745.523	299.9
745.852	315.15
746.181	284.66
746.509	289.74
746.838	299.9
747.167	378.65
747.495	284.66
747.824	386.27
748.152	388.81
748.481	256.72
748.809	310.06
749.138	386.27
749.466	320.23
749.794	345.63
750.122	299.9
750.451	368.49
750.779	350.71
751.107	383.73
751.435	386.27
751.763	383.73
752.091	360.87
752.419	312.61
752.746	358.33
753.074	279.58
753.402	261.8
753.73	302.44
754.057	348.17
754.385	340.55
754.712	358.33
755.04	297.36
755.367	251.64
755.695	330.39
756.022	266.88
756.349	299.9
756.676	355.79
757.004	327.85
757.331	358.33
757.658	365.95
757.985	297.36
758.312	330.39
758.639	320.23
758.966	310.06
759.292	340.55
759.619	325.31
759.946	287.2
760.273	261.8
760.599	261.8
760.926	297.36
761.252	304.98
761.579	279.58
761.905	307.52
762.232	292.28
762.558	330.39
762.884	355.79
763.21	251.64
763.537	289.74
763.863	348.17
764.189	261.8
764.515	304.98
764.841	322.77
765.167	271.96
765.493	325.31
765.818	327.85
766.144	345.63
766.47	322.77
766.796	348.17
767.121	355.79
767.447	330.39
767.772	355.79
768.098	353.25
768.423	335.47
768.749	320.23
769.074	302.44
769.399	355.79
769.725	393.89
770.05	269.42
770.375	312.61
770.7	282.12
771.025	320.23
771.35	353.25
771.675	287.2
772	327.85
772.325	363.41
772.649	353.25
772.974	348.17
