Data from solis1d_750mA_gray_FLMS192441__3__16-06-12-071.txt Node

Date: Tue Sep 13 16:06:12 CEST 2022
User: Spectrometer
Spectrometer: FLMS19244
Trigger mode: 0
Integration Time (sec): 1.000000E-1
Scans to average: 1
Electric dark correction enabled: true
Nonlinearity correction enabled: false
Boxcar width: 0
XAxis mode: Wavelengths
Number of Pixels in Spectrum: 2048
>>>>>Begin Spectral Data<<<<<
338.974	10.16
339.356	10.16
339.738	10.16
340.12	-121.93
340.502	-104.15
340.883	-15.24
341.265	-78.75
341.647	-114.31
342.029	-20.32
342.41	-43.18
342.792	-38.1
343.173	-76.21
343.555	-124.47
343.936	-10.16
344.318	-7.62
344.699	60.97
345.08	78.75
345.462	63.51
345.843	91.45
346.224	137.17
346.605	96.53
346.986	124.47
347.368	157.49
347.749	142.25
348.13	180.36
348.51	231.16
348.891	238.78
349.272	271.8
349.653	228.62
350.034	261.64
350.414	266.72
350.795	246.4
351.176	287.04
351.556	287.04
351.937	332.77
352.317	279.42
352.698	335.31
353.078	355.63
353.459	345.47
353.839	414.06
354.219	292.12
354.599	330.23
354.98	345.47
355.36	340.39
355.74	312.45
356.12	317.53
356.5	408.97
356.88	350.55
357.26	378.49
357.64	322.61
358.02	309.91
358.399	299.75
358.779	408.97
359.159	345.47
359.539	358.17
359.918	342.93
360.298	327.69
360.677	264.18
361.057	340.39
361.436	314.99
361.816	287.04
362.195	335.31
362.574	365.79
362.954	348.01
363.333	325.15
363.712	350.55
364.091	269.26
364.47	289.58
364.849	375.95
365.228	320.07
365.607	332.77
365.986	276.88
366.365	302.29
366.744	294.66
367.123	337.85
367.501	327.69
367.88	304.83
368.259	297.21
368.637	340.39
369.016	330.23
369.394	330.23
369.773	238.78
370.151	289.58
370.53	317.53
370.908	312.45
371.286	292.12
371.665	322.61
372.043	307.37
372.421	314.99
372.799	348.01
373.177	348.01
373.555	322.61
373.933	330.23
374.311	309.91
374.689	279.42
375.067	284.5
375.445	281.96
375.823	337.85
376.2	342.93
376.578	292.12
376.956	335.31
377.333	287.04
377.711	325.15
378.088	271.8
378.466	332.77
378.843	345.47
379.22	279.42
379.598	289.58
379.975	276.88
380.352	266.72
380.73	345.47
381.107	337.85
381.484	261.64
381.861	254.02
382.238	193.06
382.615	314.99
382.992	350.55
383.369	307.37
383.746	370.87
384.122	386.11
384.499	325.15
384.876	332.77
385.252	330.23
385.629	327.69
386.006	314.99
386.382	304.83
386.759	287.04
387.135	302.29
387.512	259.1
387.888	320.07
388.264	340.39
388.641	264.18
389.017	256.56
389.393	373.41
389.769	307.37
390.145	332.77
390.521	248.94
390.897	294.66
391.273	327.69
391.649	350.55
392.025	287.04
392.401	307.37
392.777	360.71
393.152	299.75
393.528	276.88
393.904	289.58
394.279	304.83
394.655	246.4
395.03	312.45
395.406	294.66
395.781	317.53
396.157	284.5
396.532	360.71
396.907	317.53
397.283	396.27
397.658	391.19
398.033	350.55
398.408	368.33
398.783	340.39
399.158	309.91
399.533	307.37
399.908	302.29
400.283	340.39
400.658	363.25
401.033	292.12
401.407	325.15
401.782	383.57
402.157	312.45
402.531	256.56
402.906	312.45
403.28	391.19
403.655	353.09
404.029	342.93
404.404	355.63
404.778	348.01
405.153	332.77
405.527	261.64
405.901	251.48
406.275	355.63
406.649	320.07
407.023	383.57
407.397	292.12
407.771	353.09
408.145	238.78
408.519	292.12
408.893	348.01
409.267	373.41
409.641	388.65
410.015	292.12
410.388	393.73
410.762	381.03
411.136	302.29
411.509	360.71
411.883	378.49
412.256	322.61
412.63	337.85
413.003	358.17
413.376	383.57
413.75	436.92
414.123	408.97
414.496	396.27
414.869	401.35
415.242	424.22
415.615	396.27
415.988	381.03
416.361	381.03
416.734	403.89
417.107	419.14
417.48	472.48
417.853	459.78
418.226	459.78
418.598	454.7
418.971	508.04
419.344	515.66
419.716	472.48
420.089	538.53
420.461	546.15
420.834	558.85
421.206	566.47
421.578	617.27
421.951	594.41
422.323	637.59
422.695	680.78
423.067	723.96
423.439	845.89
423.812	759.52
424.184	871.29
424.556	868.75
424.928	904.32
425.299	944.96
425.671	972.9
426.043	1038.95
426.415	1104.99
426.787	1122.77
427.158	1275.19
427.53	1221.84
427.902	1325.99
428.273	1389.5
428.645	1450.46
429.016	1526.67
429.387	1646.06
429.759	1592.71
430.13	1740.05
430.501	1816.25
430.873	1971.21
431.244	1961.05
431.615	1973.75
431.986	2397.96
432.357	2349.7
432.728	2631.66
433.099	2560.54
433.47	2591.02
433.841	2911.09
434.212	2819.64
434.583	3220.99
434.953	3256.56
435.324	3312.44
435.695	3650.29
436.065	3696.01
436.436	3856.05
436.806	4056.72
437.177	4277.72
437.547	4562.23
437.918	4732.42
438.288	4996.6
438.658	5141.39
439.028	5354.77
439.399	5634.2
439.769	6007.61
440.139	6205.74
440.509	6447.07
440.879	6843.34
441.249	6957.65
441.619	7300.58
441.989	7694.31
442.359	7836.56
442.728	7821.32
443.098	7973.73
443.468	8253.16
443.838	8530.04
444.207	8519.88
444.577	8781.52
444.946	8878.05
445.316	8697.7
445.685	8761.2
446.055	8852.65
446.424	8646.89
446.793	8786.6
447.163	8636.73
447.532	8428.43
447.901	8133.77
448.27	8220.13
448.639	7760.36
449.008	7661.29
449.377	7475.85
449.746	7008.45
450.115	6767.13
450.484	6576.62
450.853	6172.72
451.221	5845.03
451.59	5616.41
451.959	5451.3
452.327	5207.44
452.696	4966.12
453.065	4831.49
453.433	4534.28
453.801	4295.5
454.17	4351.39
454.538	4051.64
454.907	3873.83
455.275	3591.86
455.643	3447.07
456.011	3500.42
456.379	3198.13
456.747	3043.18
457.115	3121.92
457.483	3068.58
457.851	3035.56
458.219	2883.14
458.587	2878.06
458.955	2728.19
459.323	2778.99
459.69	2685.01
460.058	2527.51
460.426	2489.41
460.793	2547.84
461.161	2476.71
461.528	2438.61
461.896	2253.17
462.263	2408.12
462.631	2349.7
462.998	2258.25
463.365	2174.42
463.732	2126.16
464.1	2113.46
464.467	2006.77
464.834	2032.17
465.201	1920.4
465.568	1889.92
465.935	1864.52
466.302	1780.69
466.669	1742.59
467.035	1590.17
467.402	1610.5
467.769	1663.84
468.136	1549.53
468.502	1618.12
468.869	1496.19
469.235	1450.46
469.602	1531.75
469.968	1409.82
470.335	1463.16
470.701	1468.24
471.067	1364.1
471.434	1450.46
471.8	1419.98
472.166	1397.12
472.532	1374.26
472.898	1346.31
473.264	1287.89
473.63	1252.33
473.996	1323.45
474.362	1295.51
474.728	1323.45
475.094	1277.73
475.46	1300.59
475.825	1285.35
476.191	1298.05
476.557	1239.62
476.922	1303.13
477.288	1254.87
477.653	1252.33
478.019	1333.61
478.384	1331.07
478.749	1285.35
479.115	1333.61
479.48	1290.43
479.845	1285.35
480.21	1290.43
480.576	1252.33
480.941	1315.83
481.306	1325.99
481.671	1338.69
482.036	1178.66
482.401	1315.83
482.765	1348.85
483.13	1425.06
483.495	1435.22
483.86	1331.07
484.224	1328.53
484.589	1399.66
484.954	1473.32
485.318	1356.47
485.683	1386.96
486.047	1521.59
486.412	1425.06
486.776	1412.36
487.14	1592.71
487.504	1501.27
487.869	1633.36
488.233	1620.66
488.597	1580.01
488.961	1765.45
489.325	1801.01
489.689	1831.49
490.053	1861.98
490.417	1887.38
490.781	1999.15
491.145	2077.9
491.508	2062.65
491.872	2245.55
492.236	2278.57
492.599	2359.86
492.963	2436.07
493.327	2514.81
493.69	2555.46
494.054	2631.66
494.417	2895.84
494.78	2908.55
495.144	3025.4
495.507	3040.64
495.87	3170.19
496.233	3337.84
496.596	3358.16
496.959	3502.96
497.322	3495.34
497.685	3769.68
498.048	3914.47
498.411	4127.85
498.774	4249.78
499.137	4369.17
499.5	4552.06
499.862	4704.48
500.225	4775.6
500.588	4892.45
500.95	5060.11
501.313	5232.84
501.675	5192.2
502.038	5568.15
502.4	5723.1
502.762	5944.1
503.125	6015.23
503.487	6223.53
503.849	6304.81
504.211	6538.51
504.574	6675.68
504.936	6868.74
505.298	7145.62
505.66	7226.91
506.022	7389.48
506.383	7646.05
506.745	7767.98
507.107	7920.39
507.469	8052.48
507.831	8408.11
508.192	8451.29
508.554	8710.4
508.915	8949.18
509.277	9111.75
509.638	9106.67
510	9386.09
510.361	9200.66
510.723	9609.63
511.084	9914.46
511.445	10079.57
511.806	10102.43
512.167	10224.36
512.529	10366.62
512.89	10386.94
513.251	10353.92
513.612	10572.37
513.972	10694.3
514.333	10933.08
514.694	10983.89
515.055	11014.37
515.416	11194.73
515.776	11194.73
516.137	11364.92
516.498	11329.36
516.858	11588.46
517.219	11672.29
517.579	11530.03
517.94	11936.47
518.3	11872.96
518.66	11860.26
519.021	11977.11
519.381	12083.8
519.741	12175.25
520.101	12144.77
520.461	12228.59
520.821	12373.39
521.181	12360.68
521.541	12457.21
521.901	12853.49
522.261	12678.21
522.621	12602.01
522.981	12612.17
523.34	12508.02
523.7	12619.79
524.06	12622.33
524.419	12721.4
524.779	12685.83
525.138	12929.69
525.498	12629.95
525.857	12889.05
526.216	12929.69
526.576	12876.35
526.935	12942.39
527.294	12731.56
527.653	13084.65
528.013	12916.99
528.372	13005.9
528.731	12998.28
529.09	12853.49
529.449	12916.99
529.807	13198.96
530.166	13244.68
530.525	12990.66
530.884	12878.89
531.243	12863.65
531.601	13000.82
531.96	12942.39
532.318	12820.46
532.677	12845.87
533.035	12975.42
533.394	12911.91
533.752	12871.27
534.111	13125.29
534.469	13031.3
534.827	12767.12
535.185	12784.9
535.543	12896.67
535.902	12967.8
536.26	12729.02
536.618	12988.12
536.976	13153.23
537.334	12604.55
537.691	12767.12
538.049	12967.8
538.407	12701.07
538.765	12927.15
539.122	12937.31
539.48	12820.46
539.838	13000.82
540.195	12812.84
540.553	12833.16
540.91	12924.61
541.268	12800.14
541.625	12927.15
541.982	13005.9
542.34	12878.89
542.697	12970.34
543.054	13008.44
543.411	12975.42
543.768	12914.45
544.125	13171.01
544.482	13003.36
544.839	12894.13
545.196	12980.5
545.553	12792.52
545.91	12873.81
546.267	12896.67
546.623	13087.19
546.98	13023.68
547.337	12843.33
547.693	13026.22
548.05	12807.76
548.406	12833.16
548.763	12744.26
549.119	12843.33
549.475	12980.5
549.832	13044
550.188	13051.62
550.544	12833.16
550.9	12919.53
551.256	12927.15
551.612	13079.57
551.968	12972.88
552.324	12904.29
552.68	12942.39
553.036	12762.04
553.392	12975.42
553.748	12789.98
554.104	12934.77
554.459	12789.98
554.815	12873.81
555.17	12919.53
555.526	13023.68
555.882	12889.05
556.237	13054.16
556.592	13173.55
556.948	13262.46
557.303	13008.44
557.658	13242.14
558.014	13242.14
558.369	12998.28
558.724	13041.46
559.079	12995.74
559.434	12939.85
559.789	13132.91
560.144	13234.52
560.499	13313.27
560.854	13239.6
561.209	13379.31
561.563	13064.32
561.918	13430.12
562.273	13503.78
562.627	13351.37
562.982	13404.71
563.336	13155.77
563.691	13211.66
564.045	13417.41
564.4	13193.88
564.754	13341.21
565.108	13394.55
565.463	13097.35
565.817	13470.76
566.171	13511.4
566.525	13361.53
566.879	13295.48
567.233	13442.82
567.587	13358.99
567.941	13455.52
568.295	13503.78
568.649	13191.34
569.002	13529.18
569.356	13414.87
569.71	13300.56
570.064	12863.65
570.417	13402.17
570.771	13303.1
571.124	13351.37
571.478	13061.78
571.831	13117.67
572.184	13254.84
572.538	13153.23
572.891	12883.97
573.244	12957.64
573.597	13005.9
573.95	12916.99
574.304	12881.43
574.657	13071.95
575.01	12934.77
575.362	12772.2
575.715	12995.74
576.068	12718.86
576.421	12632.49
576.774	12944.93
577.126	12817.92
577.479	12645.19
577.832	12713.77
578.184	12523.26
578.537	12543.58
578.889	12729.02
579.242	12602.01
579.594	12706.15
579.946	12642.65
580.299	12424.19
580.651	12383.55
581.003	12518.18
581.355	12429.27
581.707	12401.33
582.059	12490.24
582.411	12419.11
582.763	12350.52
583.115	12497.86
583.467	12520.72
583.819	12447.05
584.171	12340.36
584.522	12027.92
584.874	12238.75
585.226	12152.39
585.577	12015.22
585.929	12038.08
586.28	11784.06
586.632	11972.03
586.983	12142.23
587.334	12027.92
587.686	11829.78
588.037	11809.46
588.388	11933.93
588.739	11761.19
589.09	11789.14
589.441	11557.98
589.792	11690.07
590.143	11550.36
590.494	11479.23
590.845	11344.6
591.196	11367.46
591.547	11372.54
591.897	11342.06
592.248	11118.52
592.599	11006.75
592.949	11088.04
593.3	10836.56
593.65	10887.36
594.001	10638.42
594.351	10587.62
594.702	10648.58
595.052	10585.07
595.402	10513.95
595.752	10196.42
596.102	10369.16
596.453	10099.89
596.803	10341.21
597.153	10056.71
597.503	10046.55
597.853	9990.66
598.202	9708.7
598.552	9772.21
598.902	9863.65
599.252	9726.48
599.601	9784.91
599.951	9848.41
600.301	9619.79
600.65	9528.35
601	9388.63
601.349	9266.7
601.699	9556.29
602.048	9452.14
602.397	9076.19
602.747	9144.77
603.096	9215.9
603.445	8923.77
603.794	8977.12
604.143	8799.3
604.492	8875.51
604.841	8763.74
605.19	8900.91
605.539	8812
605.888	8601.17
606.237	8461.46
606.585	8629.11
606.934	8331.9
607.283	8504.64
607.631	8253.16
607.98	8202.35
608.328	8199.81
608.677	8235.38
609.025	8077.88
609.374	7839.1
609.722	7991.52
610.07	7747.65
610.418	7795.92
610.767	7717.17
611.115	7475.85
611.463	7379.32
611.811	7475.85
612.159	7346.3
612.507	7221.83
612.855	7171.03
613.202	7173.57
613.55	7049.1
613.898	6929.71
614.246	6866.2
614.593	6871.28
614.941	6807.78
615.288	6683.3
615.636	6741.73
615.983	6652.82
616.331	6462.31
616.678	6314.97
617.026	6292.11
617.373	6266.71
617.72	6200.66
618.067	6269.25
618.414	5982.21
618.761	6152.4
619.108	5839.95
619.455	5837.41
619.802	5740.89
620.149	5723.1
620.496	5799.31
620.843	5565.61
621.19	5504.65
621.536	5497.02
621.883	5324.29
622.23	5499.56
622.576	5281.11
622.923	5281.11
623.269	5253.16
623.616	5293.81
623.962	5039.79
624.308	4884.83
624.655	4991.52
625.001	4897.53
625.347	4816.25
625.693	4750.2
626.039	4640.97
626.385	4613.03
626.731	4582.55
627.077	4486.02
627.423	4574.93
627.769	4544.44
628.115	4313.28
628.46	4450.46
628.806	4341.23
629.152	4348.85
629.497	4237.08
629.843	4046.56
630.189	3932.25
630.534	3972.9
630.879	3967.82
631.225	3861.13
631.57	3922.09
631.915	3942.41
632.261	3856.05
632.606	3746.82
632.951	3708.71
633.296	3627.43
633.641	3627.43
633.986	3665.53
634.331	3487.71
634.676	3480.09
635.021	3419.13
635.365	3459.77
635.71	3370.86
636.055	3327.68
636.4	3259.1
636.744	3060.96
637.089	3066.04
637.433	3015.23
637.778	3045.72
638.122	3025.4
638.466	3017.78
638.811	2944.11
639.155	2964.43
639.499	2918.71
639.843	2908.55
640.188	2773.91
640.532	2812.02
640.876	2705.33
641.22	2743.43
641.564	2519.89
641.908	2616.42
642.251	2664.69
642.595	2596.1
642.939	2611.34
643.283	2646.9
643.626	2527.51
643.97	2596.1
644.313	2491.95
644.657	2514.81
645	2456.39
645.344	2339.54
645.687	2283.65
646.03	2265.87
646.374	2385.26
646.717	2273.49
647.06	2179.5
647.403	2237.93
647.746	2215.07
648.089	2339.54
648.432	2110.92
648.775	2182.04
649.118	2103.3
649.461	2204.91
649.804	2016.93
650.146	2024.55
650.489	1963.59
650.832	2011.85
651.174	1955.97
651.517	2004.23
651.859	1879.76
652.202	1854.36
652.544	1895
652.887	1917.86
653.229	1854.36
653.571	1798.47
653.913	1831.49
654.256	1846.74
654.598	1811.17
654.94	1760.37
655.282	1737.51
655.624	1656.22
655.966	1719.73
656.308	1707.02
656.649	1651.14
656.991	1595.25
657.333	1661.3
657.675	1681.62
658.016	1569.85
658.358	1536.83
658.699	1574.93
659.041	1582.55
659.382	1440.3
659.724	1460.62
660.065	1493.65
660.406	1503.81
660.748	1460.62
661.089	1445.38
661.43	1425.06
661.771	1336.15
662.112	1417.44
662.453	1379.34
662.794	1371.72
663.135	1366.64
663.476	1308.21
663.817	1338.69
664.157	1323.45
664.498	1285.35
664.839	1343.77
665.179	1226.92
665.52	1313.29
665.86	1270.11
666.201	1262.49
666.541	1265.03
666.882	1323.45
667.222	1239.62
667.562	1148.18
667.903	1158.34
668.243	1155.8
668.583	1234.54
668.923	1173.58
669.263	1092.29
669.603	1198.98
669.943	1160.88
670.283	1150.72
670.623	1094.83
670.963	1176.12
671.302	1097.37
671.642	1087.21
671.982	1082.13
672.321	1150.72
672.661	1038.95
673	1066.89
673.34	1061.81
673.679	998.3
674.019	1016.09
674.358	960.2
674.697	980.52
675.036	988.14
675.376	1051.65
675.715	944.96
676.054	1018.63
676.393	998.3
676.732	919.56
677.071	998.3
677.41	853.51
677.748	934.8
678.087	985.6
678.426	957.66
678.765	909.4
679.103	894.16
679.442	950.04
679.78	868.75
680.119	909.4
680.457	896.7
680.796	843.35
681.134	810.33
681.472	820.49
681.811	861.13
682.149	873.83
682.487	828.11
682.825	820.49
683.163	845.89
683.501	810.33
683.839	802.71
684.177	825.57
684.515	790.01
684.853	756.98
685.191	713.8
685.528	807.79
685.866	767.14
686.204	805.25
686.541	749.36
686.879	792.55
687.216	739.2
687.554	693.48
687.891	751.9
688.228	744.28
688.566	614.73
688.903	734.12
689.24	690.94
689.577	812.87
689.914	777.31
690.251	668.08
690.588	706.18
690.925	706.18
691.262	660.46
691.599	668.08
691.936	708.72
692.273	632.51
692.609	647.75
692.946	736.66
693.282	657.92
693.619	637.59
693.956	685.86
694.292	622.35
694.628	551.23
694.965	581.71
695.301	678.24
695.637	551.23
695.974	619.81
696.31	594.41
696.646	624.89
696.982	541.07
697.318	589.33
697.654	609.65
697.99	561.39
698.326	637.59
698.662	619.81
698.997	635.05
699.333	614.73
699.669	584.25
700.004	607.11
700.34	553.77
700.675	571.55
701.011	576.63
701.346	556.31
701.682	530.9
702.017	541.07
702.352	609.65
702.688	602.03
703.023	576.63
703.358	533.45
703.693	563.93
704.028	548.69
704.363	523.28
704.698	490.26
705.033	530.9
705.368	464.86
705.703	538.53
706.037	454.7
706.372	508.04
706.707	553.77
707.041	500.42
707.376	584.25
707.71	556.31
708.045	518.2
708.379	475.02
708.714	492.8
709.048	475.02
709.382	571.55
709.716	508.04
710.051	556.31
710.385	490.26
710.719	530.9
711.053	518.2
711.387	518.2
711.721	525.82
712.055	477.56
712.388	482.64
712.722	513.12
713.056	462.32
713.39	449.62
713.723	497.88
714.057	459.78
714.39	480.1
714.724	398.81
715.057	421.68
715.391	502.96
715.724	502.96
716.057	452.16
716.39	436.92
716.724	469.94
717.057	469.94
717.39	414.06
717.723	475.02
718.056	431.84
718.389	386.11
718.722	401.35
719.055	429.3
719.387	454.7
719.72	398.81
720.053	442
720.385	459.78
720.718	406.43
721.051	469.94
721.383	457.24
721.716	434.38
722.048	492.8
722.38	447.08
722.713	447.08
723.045	457.24
723.377	464.86
723.709	398.81
724.041	284.5
724.373	386.11
724.705	396.27
725.037	348.01
725.369	345.47
725.701	406.43
726.033	370.87
726.365	375.95
726.696	426.76
727.028	406.43
727.36	436.92
727.691	358.17
728.023	421.68
728.354	447.08
728.686	381.03
729.017	386.11
729.348	467.4
729.68	281.96
730.011	406.43
730.342	348.01
730.673	396.27
731.004	431.84
731.335	302.29
731.666	365.79
731.997	259.1
732.328	401.35
732.659	444.54
732.99	363.25
733.32	436.92
733.651	363.25
733.982	434.38
734.312	449.62
734.643	292.12
734.973	431.84
735.304	398.81
735.634	353.09
735.965	406.43
736.295	358.17
736.625	332.77
736.955	370.87
737.285	403.89
737.616	340.39
737.946	355.63
738.276	388.65
738.605	368.33
738.935	353.09
739.265	363.25
739.595	350.55
739.925	375.95
740.254	401.35
740.584	327.69
740.914	403.89
741.243	342.93
741.573	330.23
741.902	363.25
742.232	391.19
742.561	424.22
742.89	332.77
743.22	378.49
743.549	312.45
743.878	434.38
744.207	348.01
744.536	408.97
744.865	370.87
745.194	378.49
745.523	408.97
745.852	345.47
746.181	274.34
746.509	348.01
746.838	406.43
747.167	396.27
747.495	309.91
747.824	355.63
748.152	365.79
748.481	320.07
748.809	375.95
749.138	353.09
749.466	330.23
749.794	411.51
750.122	363.25
750.451	386.11
750.779	342.93
751.107	373.41
751.435	424.22
751.763	317.53
752.091	411.51
752.419	292.12
752.746	353.09
753.074	266.72
753.402	421.68
753.73	363.25
754.057	332.77
754.385	373.41
754.712	365.79
755.04	363.25
755.367	393.73
755.695	373.41
756.022	373.41
756.349	396.27
756.676	342.93
757.004	358.17
757.331	414.06
757.658	348.01
757.985	299.75
